# HDF: fcm_201403_060  
# /archive/messung/kmc/daten/2014/1Q/pilatus_201403_0957.tif
# Energy (eV)=8800 Distance (mm)=4.5326  Normalization factor =0.00050355671  Center=(497.5,538.2)  Binsize (nm-1)=0.0017
# Normalized by solid angle (1/distance^2), time (PilatusAcqTime_GRAL) and intensity (K4norm_mean)
# Detector quantum efficiency = 95.72% Monitor sensitivity (ph/s/A) = 4.538e+16 Sample thickness (mm) =1 Direct beam(photons * sr) = 0.5261
# q(nm-1)	I_norm	err_pois	err_stdv
0	0	936.83741	102.22164
0.0017	156.34929	499.4895	193.50552
0.0034	316.77053	377.55127	191.13635
0.0051	53.123877	299.17523	66.79729
0.0068	19.078442	266.15276	36.235321
0.0085	108.62007	258.58907	82.704855
0.0102	127.78548	247.75661	85.40525
0.0119	105.47397	236.49486	73.755785
0.0136	67.174378	223.86094	56.76831
0.0153	166.54308	217.19377	83.547823
0.017	154.56093	209.33206	77.314978
0.0187	60.643012	191.11629	46.492357
0.0204	123.02067	173.98344	58.505306
0.0221	136.81608	170.13137	90.856049
0.0238	1997.1704	237.34881	1429.8636
0.0255	27601.098	718.85641	4986.6654
0.0272	67046.621	1092.0913	5703.599
0.0289	108956.44	1484.9452	3816.9951
0.0306	115738.54	1457.7796	3026.5459
0.0323	112881.14	1389.7285	3038.1092
0.034	109760.75	1258.8531	3054.7473
0.0357	99815.339	1083.4744	2718.442
0.0374	89737.779	975.15066	2376.6394
0.0391	82248.58	905.95201	2131.3833
0.0408	74133.924	834.69555	1999.2823
0.0425	65384.744	772.13649	1868.1685
0.0442	57249.745	713.32114	1724.1882
0.0459	49178.936	646.2508	1533.9562
0.0476	42367.385	587.11817	1426.1425
0.0493	36155.125	526.62242	1271.3291
0.051	30390.327	471.55606	1128.2942
0.0527	26066.669	427.63014	973.97355
0.0544	23030.577	393.75247	891.78812
0.0561	18589.046	346.70189	791.78617
0.0578	15566.034	312.39884	667.06794
0.0595	12389.878	270.90255	559.20426
0.0612	10536.135	247.49533	477.92863
0.0629	8376.9774	215.68799	390.808
0.0646	6555.4468	191.38781	332.01286
0.0663	5351.1912	173.20091	284.57249
0.068	4261.5317	151.94624	230.73541
0.0697	3714.109	142.56226	198.32693
0.0714	3189.228	130.08077	163.28351
0.0731	2761.5312	122.70619	141.90836
0.0748	2518.2469	115.63012	128.80969
0.0765	2551.7309	114.62094	123.87514
0.0782	2536.0635	112.97863	124.95241
0.0799	2653.8376	114.58362	133.82597
0.0816	3013.6945	119.61409	139.61659
0.0833	3236.1327	120.01965	140.68986
0.085	3532.8961	123.16493	146.87859
0.0867	3866.9167	127.41021	153.07887
0.0884	3994.1282	127.42605	154.29692
0.0901	4045.4352	126.91489	148.75162
0.0918	4291.6074	129.31474	153.71999
0.0935	4434.2022	129.00551	147.20365
0.0952	4757.2653	132.11302	152.05798
0.0969	4832.7652	131.87759	151.04316
0.0986	4721.0113	129.74116	149.59911
0.1003	4521.5937	126.00271	135.35288
0.102	4323.3138	123.51233	142.97622
0.1037	4186.4542	118.70976	139.3828
0.1054	4201.8102	118.60792	134.78245
0.1071	3942.1915	114.38658	134.57361
0.1088	3767.9969	111.72372	132.93109
0.1105	3453.1466	107.36971	128.07733
0.1122	3197.1214	103.39743	119.83238
0.1139	2850.1798	97.201749	108.73418
0.1156	2589.5975	93.788613	104.46525
0.1173	2274.5407	87.708951	95.006428
0.119	2113.7425	85.889328	94.704236
0.1207	1998.0375	84.74857	91.071529
0.1224	1686.929	80.178764	84.955439
0.1241	1407.4926	75.779503	75.973899
0.1258	1192.3915	72.743123	67.998296
0.1275	1063.3954	70.275283	63.068972
0.1292	1055.3057	70.050911	62.607879
0.1309	1027.4649	69.149011	58.974518
0.1326	1009.1701	67.752869	56.327773
0.1343	981.69956	67.639843	58.206872
0.136	972.05908	67.979971	57.808596
0.1377	955.80678	67.424082	57.263548
0.1394	1079.9317	69.401659	61.076891
0.1411	943.56494	68.395418	58.460811
0.1428	1023.3395	69.565146	59.877405
0.1445	1100.2865	70.479756	63.251339
0.1462	1156.3993	70.796284	64.04306
0.1479	1195.4301	71.2396	65.6908
0.1496	1267.3203	72.433045	67.636655
0.1513	1320.0832	72.561792	68.489631
0.153	1324.1387	72.060048	68.046509
0.1547	1356.9507	72.963353	70.752614
0.1564	1450.1484	74.095973	72.941988
0.1581	1340.7585	71.45582	68.707605
0.1598	1384.2976	72.50354	71.057832
0.1615	1406.0013	72.143704	66.71967
0.1632	1328.7516	71.398271	66.117573
0.1649	1338.7056	71.472073	69.580319
0.1666	1298.9718	69.893342	66.905537
0.1683	1254.6451	67.930516	61.29314
0.17	1160.9875	65.831834	58.651996
0.1717	1120.0873	65.384339	59.23177
0.1734	1035.2865	64.000071	56.987952
0.1751	997.15425	63.063786	54.850283
0.1768	975.90365	62.635755	54.233064
0.1785	919.80933	60.940768	50.281494
0.1802	886.50995	60.173475	48.075313
0.1819	783.70932	58.824261	44.711751
0.1836	729.8783	57.928524	42.869571
0.1853	670.87753	57.590882	42.904752
0.187	658.76412	56.88711	42.011626
0.1887	715.35972	56.869951	43.185338
0.1904	675.84878	56.941064	44.655212
0.1921	623.41769	55.614876	39.851871
0.1938	571.16397	54.802951	37.543586
0.1955	574.01976	55.429391	38.560672
0.1972	647.66837	56.439075	40.197004
0.1989	643.46378	56.620044	40.660108
0.2006	608.10552	56.157039	39.165281
0.2023	622.69535	56.306097	38.942658
0.204	604.25106	56.079209	38.604191
0.2057	681.58071	57.171484	42.669194
0.2074	667.06983	57.009062	41.669648
0.2091	599.66102	56.113421	38.882502
0.2108	614.40562	56.686996	40.662287
0.2125	614.50729	56.516236	41.829185
0.2142	701.02899	57.021698	43.334103
0.2159	685.20571	56.668889	43.348596
0.2176	771.67858	57.671471	45.075345
0.2193	648.29056	56.168991	39.491949
0.221	656.14589	56.271586	40.255788
0.2227	614.34643	55.553921	40.016435
0.2244	670.24894	55.237266	40.504071
0.2261	698.94827	55.167289	41.840245
0.2278	689.18273	54.330066	40.626348
0.2295	602.70803	52.607367	36.475089
0.2312	588.02273	52.61805	36.815446
0.2329	569.22571	51.99152	37.326179
0.2346	579.71216	51.894711	36.972072
0.2363	537.93011	51.102586	35.043932
0.238	587.90827	51.436873	36.947485
0.2397	572.11648	51.067941	36.542691
0.2414	541.16112	50.429538	34.945983
0.2431	522.28603	49.852438	33.488704
0.2448	518.66181	49.540604	33.314157
0.2465	504.06203	49.158721	32.324691
0.2482	539.92969	49.303754	33.449905
0.2499	473.3532	48.364414	30.916385
0.2516	509.04068	48.681494	31.595844
0.2533	479.76747	48.164554	30.900392
0.255	440.64912	47.699271	29.801446
0.2567	455.34101	47.731034	30.713971
0.2584	497.93439	47.54502	30.951231
0.2601	525.22509	47.628058	31.421005
0.2618	447.1479	46.795707	28.810477
0.2635	466.04242	46.872131	29.65551
0.2652	482.30041	46.635552	29.68904
0.2669	436.47055	46.281024	28.693789
0.2686	439.02521	46.140599	28.588463
0.2703	453.79975	45.797752	28.050169
0.272	522.68825	46.37918	30.574559
0.2737	486.18016	45.826789	29.397673
0.2754	479.82209	45.704612	29.58466
0.2771	498.04903	45.577363	30.092785
0.2788	491.55288	45.40343	29.528164
0.2805	496.005	45.255171	29.054719
0.2822	477.81562	45.013865	28.973238
0.2839	491.31677	45.066645	29.988883
0.2856	456.89136	44.438999	28.27999
0.2873	485.70154	44.486394	28.84564
0.289	507.86422	44.476673	29.383219
0.2907	492.67859	44.224129	28.152477
0.2924	416.17283	43.527556	26.115814
0.2941	455.93877	43.847651	27.584647
0.2958	460.84024	43.698808	27.972631
0.2975	439.36575	43.18755	26.571863
0.2992	474.5161	43.225701	27.24253
0.3009	449.64601	43.111528	26.957935
0.3026	421.67529	42.894206	25.91392
0.3043	415.2815	42.540576	25.786657
0.306	444.84749	42.644292	26.830399
0.3077	414.19838	42.417282	26.05528
0.3094	395.80049	42.070089	24.818326
0.3111	416.68119	41.955324	25.025036
0.3128	413.26419	41.683723	24.676947
0.3145	432.71869	42.056088	26.087635
0.3162	406.50572	41.667643	25.417956
0.3179	405.508	41.400093	25.072364
0.3196	411.51375	41.360558	24.749821
0.3213	365.28022	40.886375	22.898471
0.323	372.5172	41.013139	23.735106
0.3247	389.4291	40.937428	24.040405
0.3264	378.11864	40.68005	23.790254
0.3281	382.35852	40.717916	24.434893
0.3298	405.12609	40.624835	24.596261
0.3315	400.39146	40.380003	23.902133
0.3332	389.83188	40.169964	23.350375
0.3349	403.65386	40.270033	23.691996
0.3366	408.21595	40.146113	23.754137
0.3383	414.51847	40.069681	24.222801
0.34	417.56039	39.874523	23.803424
0.3417	401.57868	39.703246	23.440244
0.3434	380.60613	39.717561	23.692118
0.3451	384.97116	39.516636	23.763864
0.3468	413.85825	39.503457	24.311906
0.3485	375.26498	39.279443	23.483307
0.3502	362.5473	39.10123	22.869872
0.3519	373.34698	38.914679	22.283791
0.3536	392.31875	38.850827	22.619786
0.3553	401.69873	39.032026	23.408826
0.357	370.06774	38.591562	22.151483
0.3587	401.61644	38.738822	23.219209
0.3604	376.73208	38.496676	22.424991
0.3621	356.07004	38.254212	21.757889
0.3638	347.57928	38.136695	21.187322
0.3655	346.80522	37.988522	21.280331
0.3672	364.39564	37.999408	22.174455
0.3689	379.21327	38.049603	22.208173
0.3706	350.36284	37.68552	21.201554
0.3723	343.52411	37.497849	20.776079
0.374	374.07524	37.635447	21.723677
0.3757	392.53169	37.730795	22.200736
0.3774	383.27741	37.585222	21.929962
0.3791	371.58302	37.327999	21.330384
0.3808	385.40263	37.382226	21.903183
0.3825	353.31196	37.04651	20.65314
0.3842	317.93289	36.779119	19.498391
0.3859	375.05455	36.966794	21.159304
0.3876	395.19791	37.043947	21.726115
0.3893	373.42836	36.918692	21.601767
0.391	372.33992	36.787231	21.613207
0.3927	346.05377	36.606643	21.201626
0.3944	358.95482	36.480533	20.533748
0.3961	325.51458	36.24961	19.564545
0.3978	327.76652	36.214248	19.887995
0.3995	369.69603	36.349083	21.276893
0.4012	367.84255	36.253671	21.008343
0.4029	358.28652	36.003173	20.172063
0.4046	408.00472	36.415069	22.295229
0.4063	365.48997	35.949893	21.307522
0.408	374.69477	35.927706	20.73244
0.4097	350.45188	35.727022	20.123498
0.4114	368.90093	35.789675	20.814737
0.4131	366.95006	35.694941	20.598685
0.4148	339.5694	35.373981	19.673942
0.4165	357.12368	35.430985	20.005789
0.4182	337.61788	35.336895	19.758015
0.4199	331.82696	35.199511	19.327529
0.4216	326.28797	34.998497	18.832693
0.4233	313.49018	34.914379	19.196591
0.425	367.18206	35.198187	20.555483
0.4267	379.84538	35.047309	20.400148
0.4284	356.79296	34.857629	19.451105
0.4301	328.1695	34.653586	18.519073
0.4318	339.54001	34.719813	19.01352
0.4335	336.44944	34.671474	19.43487
0.4352	334.76369	34.529045	19.598506
0.4369	370.27083	34.626073	19.937025
0.4386	343.20176	34.385569	18.969726
0.4403	347.58283	34.326807	19.115597
0.442	340.70655	34.240347	19.169618
0.4437	341.25495	34.169505	19.180033
0.4454	350.7528	34.23673	19.603244
0.4471	330.81445	33.998604	18.209985
0.4488	342.48393	33.948524	18.63831
0.4505	349.48902	33.969922	19.446015
0.4522	337.52363	33.891127	19.021548
0.4539	314.14289	33.630893	17.970391
0.4556	324.9234	33.592568	18.334398
0.4573	360.41453	33.771709	19.24802
0.459	364.67791	33.669898	19.001725
0.4607	351.32682	33.48819	18.329146
0.4624	342.84288	33.377971	18.175152
0.4641	339.53436	33.307498	18.135464
0.4658	333.26125	33.387056	18.571558
0.4675	351.51668	33.371361	19.000962
0.4692	359.01593	33.248415	18.984749
0.4709	329.85354	33.091293	18.292371
0.4726	330.86115	33.088142	18.265806
0.4743	337.2573	32.985077	18.135933
0.476	342.2434	32.906592	18.048499
0.4777	342.9326	32.92879	18.300616
0.4794	345.36179	32.823077	18.011618
0.4811	336.00551	32.685164	17.771436
0.4828	337.39754	32.688534	18.125421
0.4845	325.6987	32.66101	18.19921
0.4862	331.2385	32.582728	17.935022
0.4879	347.81856	32.591565	18.173408
0.4896	334.29312	32.391328	17.771495
0.4913	340.52956	32.457606	18.311515
0.493	328.05389	32.297552	17.610717
0.4947	329.51999	32.408443	17.6463
0.4964	335.08526	32.648943	17.92128
0.4981	346.63968	32.772944	18.341191
0.4998	335.82165	32.889536	18.21012
0.5015	322.4283	32.903799	18.141844
0.5032	343.86705	33.017532	18.424785
0.5049	343.55379	33.060237	18.277637
0.5066	338.72307	33.083485	18.284863
0.5083	308.39557	33.024737	17.894142
0.51	323.83087	33.117637	18.109338
0.5117	319.60433	33.028063	17.722719
0.5134	323.94773	33.125401	17.936703
0.5151	323.06296	33.164004	17.910865
0.5168	334.20209	33.196984	18.221383
0.5185	354.94504	33.248067	18.513052
0.5202	336.0245	33.228451	18.379032
0.5219	319.84077	33.165128	17.873409
0.5236	326.25021	32.944647	17.900342
0.5253	321.57144	32.674511	17.881895
0.527	318.27264	32.47545	17.595498
0.5287	326.8819	32.442555	17.630331
0.5304	339.42626	32.359768	17.806221
0.5321	333.42699	32.131434	17.660028
0.5338	311.32818	31.943952	16.86374
0.5355	302.34348	31.864838	16.948604
0.5372	314.98321	31.843683	17.215813
0.53889997	314.84762	31.66607	16.827875
0.5406	317.46297	31.652187	16.931086
0.54230003	318.58755	31.627593	17.188274
0.544	345.56461	31.665256	17.714178
0.54569997	323.30363	31.416363	16.884323
0.5474	310.51011	31.230685	16.464162
0.54910003	331.11013	31.420047	17.223913
0.5508	325.75907	31.281487	16.980902
0.55249997	331.19855	31.247009	17.088453
0.5542	318.64073	31.352448	16.743076
0.55590003	320.58784	31.569911	17.017525
0.5576	293.12497	31.496956	16.448153
0.55929997	326.5645	31.631473	16.824775
0.561	331.12215	31.796536	17.285573
0.56270003	304.32003	31.737101	16.603214
0.5644	299.2722	31.672225	16.905892
0.56609997	350.45715	32.02746	18.50049
0.5678	331.86691	31.841693	17.538395
0.56950003	347.93542	32.054103	17.835295
0.5712	304.06927	31.723885	16.432597
0.57289997	309.67973	31.828614	17.252965
0.5746	312.29266	31.862293	17.101453
0.57630003	299.04132	31.74825	16.478083
0.578	305.37747	31.786205	16.490265
0.57969997	323.06891	31.810156	16.896374
0.5814	348.56818	31.904443	17.655974
0.58310003	311.41973	31.521554	16.815284
0.5848	321.48637	31.30226	16.814917
0.58649997	313.01411	31.085289	16.430486
0.5882	307.71025	30.893856	16.005563
0.58990003	343.82139	31.058168	17.015287
0.5916	324.89147	30.869672	16.667742
0.59329997	298.98688	30.614408	16.11179
0.595	304.36628	30.579323	16.070679
0.59670003	317.23299	30.534933	16.375949
0.5984	338.58233	30.63335	17.033643
0.60009997	308.80538	30.29595	15.853377
0.6018	303.67188	30.175703	15.610003
0.60350003	328.57195	30.329183	16.496739
0.6052	314.31396	30.177251	16.359631
0.60689997	316.06032	30.183231	16.732645
0.6086	321.81312	30.06525	16.240166
0.61030003	325.36148	30.011278	16.133531
0.612	315.10042	29.917359	15.874245
0.61369997	309.63567	29.805953	15.671645
0.6154	317.55462	29.791017	15.917101
0.61710003	320.35253	29.723376	15.862665
0.6188	285.50043	29.541778	15.15071
0.62049997	311.14755	29.629538	16.048987
0.6222	319.7303	29.580564	16.184136
0.62390003	306.27102	29.486269	15.635596
0.6256	314.37823	29.446629	15.616872
0.62729997	321.42449	29.398396	15.500042
0.629	314.64814	29.269082	15.484082
0.63070003	311.94972	29.274342	15.772026
0.6324	328.93889	29.346232	16.103151
0.63409997	316.4462	29.148935	15.35104
0.6358	310.39296	29.078057	15.422276
0.63750003	306.96187	29.03694	15.220051
0.6392	306.96968	29.032906	15.238531
0.64089997	315.4586	28.999994	15.412035
0.6426	292.99725	28.794927	14.858486
0.64430003	316.66488	28.874283	15.502934
0.646	323.43117	28.887786	15.638517
0.64769997	307.60819	28.785736	15.573503
0.6494	312.54055	28.774064	15.762573
0.65110003	294.01947	28.620634	14.982422
0.6528	303.11638	28.635691	15.131359
0.65449997	303.23383	28.489781	14.71089
0.6562	306.41179	28.449065	14.797835
0.65790003	314.24978	28.482394	15.147029
0.6596	326.34049	28.522443	15.359324
0.66129997	311.30128	28.341887	14.90143
0.663	316.43271	28.357276	15.333226
0.66470003	304.69703	28.265385	14.815506
0.6664	278.60205	28.139647	14.267269
0.66809997	306.78545	28.217387	14.95101
0.6698	299.08403	28.159912	14.91017
0.67150003	293.51002	28.093366	14.828472
0.6732	302.84976	28.089868	14.963815
0.67489997	314.48402	28.052218	15.035521
0.6766	309.18549	27.957114	14.975575
0.67830003	299.66266	27.919158	14.54262
0.68	308.27513	27.937119	14.762214
0.68169997	293.78058	27.804869	14.542642
0.6834	324.4604	27.854027	14.890697
0.68510003	302.37197	27.696182	14.343698
0.6868	312.25073	27.782011	14.902309
0.68849997	301.48339	27.672943	14.752753
0.6902	287.41727	27.55969	14.145564
0.69190003	304.28689	27.654935	14.765774
0.6936	316.67284	27.619046	14.938987
0.69529997	304.36847	27.458016	14.228603
0.697	307.44605	27.477909	14.39723
0.69870003	308.89404	27.440433	14.34447
0.7004	303.55861	27.401241	14.40795
0.70209997	306.65364	27.329765	14.348191
0.7038	333.67906	27.421539	15.074387
0.70550003	322.4194	27.321091	14.667091
0.7072	311.59527	27.283739	14.479803
0.70889997	305.82975	27.233296	14.618025
0.7106	299.2374	27.132846	14.343443
0.71230003	301.65476	27.135867	14.37951
0.714	299.20464	27.04182	14.117
0.71569997	292.47579	27.069161	14.170831
0.7174	301.75708	26.979061	14.180028
0.71910003	320.61705	27.054108	14.862716
0.7208	316.38542	27.031311	14.678082
0.72249997	312.08611	26.947603	14.529494
0.7242	303.64729	26.859897	13.92711
0.72590003	300.45422	26.812999	14.104853
0.7276	297.47651	26.77062	14.049757
0.72929997	311.86826	26.762031	14.006269
0.731	321.75787	26.7547	14.423797
0.73270003	319.59581	26.752427	14.613353
0.7344	296.76521	26.660418	14.173216
0.73609997	308.11098	26.683258	14.234649
0.7378	305.05116	26.55988	13.900673
0.73950003	293.5474	26.49023	13.834004
0.7412	297.88701	26.497136	13.929017
0.74289997	323.54599	26.588372	14.32421
0.7446	285.26444	26.354038	13.476604
0.74630003	283.16605	26.315762	13.413703
0.748	292.73569	26.364251	13.613494
0.74969997	286.32107	26.271482	13.502851
0.7514	312.52753	26.305448	14.007322
0.75310003	279.40558	26.140518	13.286598
0.7548	288.01813	26.179579	13.471402
0.75649997	306.6872	26.243076	13.809941
0.7582	301.48401	26.095094	13.486693
0.75990003	315.99525	26.19468	14.139578
0.7616	308.88043	26.103482	13.849086
0.76329997	309.95725	26.116397	13.957151
0.765	314.96261	26.126064	14.062648
0.76670003	292.02374	25.962762	13.475419
0.7684	300.98415	25.970831	13.648101
0.77009997	312.50131	25.918311	13.614664
0.7718	308.14617	25.923671	13.616653
0.77350003	288.52297	25.808566	13.160315
0.7752	298.2488	25.822335	13.419507
0.77689997	303.04465	25.857914	13.733385
0.7786	302.95718	25.772577	13.446639
0.78030003	293.05863	25.717974	13.485016
0.782	298.38906	25.742055	13.726178
0.78369997	299.84684	25.70574	13.470532
0.7854	306.0389	25.670332	13.495595
0.78710003	313.54966	25.664665	13.554076
0.7888	278.0511	25.488741	12.843636
0.79049997	292.79014	25.572636	13.402712
0.7922	324.15815	25.653706	14.112928
0.79390003	327.55245	25.631022	14.133338
0.7956	300.63171	25.49714	13.449263
0.79729997	311.91717	25.46674	13.497609
0.799	316.38799	25.456512	13.49929
0.80070003	313.68848	25.411841	13.573994
0.8024	307.84551	25.356834	13.320773
0.80409997	302.20948	25.364021	13.322683
0.8058	313.02109	25.379401	13.538366
0.80750003	300.42897	25.275823	13.205949
0.8092	305.40268	25.242517	13.166346
0.81089997	289.72105	25.219186	13.015585
0.8126	304.40798	25.229077	13.359133
0.81430003	302.24206	25.149379	13.279277
0.816	274.87001	25.032889	12.771559
0.81769997	296.58017	25.259275	13.282284
0.8194	276.1677	25.357868	12.933723
0.82110003	288.10744	25.457831	13.179213
0.8228	320.90927	25.611742	13.810575
0.82449997	289.08687	25.57753	13.203875
0.8262	285.05883	25.592601	13.299068
0.82790003	291.03765	25.631711	13.487606
0.8296	292.14238	25.63602	13.304613
0.83129997	309.86223	25.732169	13.644022
0.833	297.34882	25.6788	13.638306
0.83470003	282.13226	25.531104	12.87511
0.8364	281.13978	25.57684	12.874643
0.83809997	294.76522	25.723673	13.498752
0.8398	294.92629	25.734929	13.499141
0.84150003	299.18233	25.690918	13.400626
0.8432	299.95616	25.831932	13.582788
0.84489997	308.08237	26.094865	13.693858
0.8466	277.96227	26.022929	13.162856
0.84830003	312.30781	26.333863	14.244876
0.85	292.1522	26.263126	13.451182
0.85169997	295.63847	26.446597	13.893897
0.8534	300.07	26.62103	14.082821
0.85510003	308.82536	26.810874	14.046526
0.8568	306.33097	27.012785	14.242659
0.85849997	303.83058	27.228726	14.439015
0.8602	273.2105	27.243052	13.719963
0.86190003	301.57178	27.44683	14.292525
0.8636	296.81883	27.565989	14.34731
0.86529997	291.67923	27.714725	14.400635
0.867	296.10221	27.791884	14.573672
0.86870003	289.17097	27.848408	14.344413
0.8704	294.65052	27.970215	14.446717
0.87209997	287.44278	28.001144	14.011763
0.8738	292.67908	28.146842	14.39558
0.87550003	284.8028	28.174869	14.32438
0.8772	308.77979	28.416	14.917937
0.87889997	315.70717	28.534106	15.201376
0.8806	301.09168	28.605419	14.972762
0.88230003	290.97809	28.639786	14.561799
0.884	280.63385	28.689286	14.472818
0.88569997	277.92676	28.825282	14.472402
