# HDF: fcm_201403_060  
# /archive/messung/kmc/daten/2014/1Q/pilatus_201403_0955.tif
# Energy (eV)=8800 Distance (mm)=4.5326  Normalization factor =0.00050361484  Center=(499.5,536.2)  Binsize (nm-1)=0.0017
# Normalized by solid angle (1/distance^2), time (PilatusAcqTime_GRAL) and intensity (K4norm_mean)
# Detector quantum efficiency = 95.72% Monitor sensitivity (ph/s/A) = 4.538e+16 Sample thickness (mm) =1 Direct beam(photons * sr) = 0.5261
# q(nm-1)	I_norm	err_pois	err_stdv
0	0	936.72927	0
0.0017	0	495.41945	13.198704
0.0034	80.601943	365.93623	103.50263
0.0051	53.117745	299.14069	68.00658
0.0068	0	254.04346	4.3291626
0.0085	51.808639	228.45885	51.292218
0.0102	17.888358	216.13799	28.636519
0.0119	123.36617	217.38325	72.6257
0.0136	108.75052	209.93241	66.497275
0.0153	17.866026	200.65322	26.194974
0.017	30.035189	195.34653	33.4006
0.0187	89.494665	190.41134	54.87746
0.0204	132.59315	183.23459	63.890115
0.0221	214.73322	172.86122	145.74755
0.0238	2907.4464	260.32825	1285.9263
0.0255	23642.187	740.28669	3593.6567
0.0272	66465.747	1291.4574	4281.132
0.0289	86253.823	1270.7761	2434.3472
0.0306	81304.391	1064.8237	1642.072
0.0323	72013.59	932.39682	1392.3966
0.034	64692.76	852.025	1264.4533
0.0357	57288.603	778.61563	1085.2628
0.0374	51915.712	717.68594	1021.3634
0.0391	48299.567	675.76372	935.59308
0.0408	42448.546	618.20722	812.09787
0.0425	36496.048	556.04381	848.19649
0.0442	31645.956	506.53768	765.30475
0.0459	26698.746	456.09074	679.29237
0.0476	22412.665	407.57075	598.15321
0.0493	19476.732	373.41058	521.52083
0.051	16364.789	334.15925	476.39576
0.0527	13446.379	299.85274	385.16103
0.0544	11312.902	270.17577	345.13217
0.0561	9353.0348	240.63527	317.1276
0.0578	7299.4161	211.98817	303.8738
0.0595	5448.4477	181.20282	251.9252
0.0612	4195.5282	157.85759	214.00702
0.0629	3467.4046	143.43265	173.05487
0.0646	2680.4451	127.59296	147.36554
0.0663	2208.483	118.07763	132.40031
0.068	1904.0043	111.45208	118.40367
0.0697	1643.9516	106.17446	109.35387
0.0714	1650.1439	104.94143	106.98788
0.0731	1765.0182	105.01456	107.86469
0.0748	1868.7326	105.95274	118.1118
0.0765	2254.1526	110.55248	120.50568
0.0782	2500.1047	112.41104	118.79553
0.0799	2624.6108	112.98188	124.5898
0.0816	3024.9069	118.16164	128.25844
0.0833	3420.7236	122.90626	133.64783
0.085	3687.6655	124.62384	132.74721
0.0867	4079.7168	129.61709	149.5325
0.0884	4200.5947	129.94697	146.04975
0.0901	4074.0378	125.66019	138.8747
0.0918	4188.3091	126.87292	144.56319
0.0935	4353.839	129.50858	150.47492
0.0952	4218.3833	124.40663	136.77821
0.0969	4007.1703	120.56641	137.6532
0.0986	4068.6849	121.69612	143.95506
0.1003	4084.7099	121.08253	138.10996
0.102	3981.3167	118.13284	136.5534
0.1037	3640.3995	111.25081	124.60334
0.1054	3416.0815	108.61587	114.79863
0.1071	3082.0476	103.31983	114.03811
0.1088	2803.5156	98.819555	108.91697
0.1105	2650.8119	96.732715	104.95817
0.1122	2368.1745	91.330515	98.762464
0.1139	2292.2482	90.561194	97.964014
0.1156	2173.8499	88.496485	96.63383
0.1173	1797.7699	81.454474	83.309667
0.119	1650.1374	79.976644	79.474484
0.1207	1332.0223	75.719989	72.082738
0.1224	1253.0979	74.452163	68.905098
0.1241	1080.624	71.345543	62.069511
0.1258	975.44653	69.364555	57.583531
0.1275	857.86812	67.158155	52.968427
0.1292	832.17177	67.3303	54.243824
0.1309	850.71879	66.969499	53.769086
0.1326	954.19241	67.683075	55.339783
0.1343	827.65533	66.190051	54.007923
0.136	736.28509	64.600251	48.909305
0.1377	796.19534	64.982497	51.57971
0.1394	877.23006	65.876067	53.732981
0.1411	1007.7062	67.871442	58.351376
0.1428	1084.985	68.537322	61.48791
0.1445	1156.3552	70.054771	63.993423
0.1462	1220.8473	70.805325	66.235529
0.1479	1217.2453	70.409617	63.725411
0.1496	1280.4889	71.694405	65.198063
0.1513	1303.8793	71.557159	66.364734
0.153	1263.4959	70.931764	64.853795
0.1547	1329.0371	71.606002	65.299892
0.1564	1365.5049	72.380612	69.532861
0.1581	1247.8991	70.350588	64.411463
0.1598	1329.7523	71.444812	67.003599
0.1615	1288.4481	70.461308	64.521036
0.1632	1321.5797	71.692097	66.882302
0.1649	1238.4914	69.717589	63.991662
0.1666	1266.2681	69.932238	64.338283
0.1683	1182.2606	68.437653	62.123413
0.17	1156.2386	66.576491	56.196071
0.1717	982.75274	63.635684	52.320752
0.1734	1031.26	63.595718	52.940788
0.1751	995.15093	62.911678	53.155522
0.1768	924.36664	61.99095	52.72048
0.1785	885.62885	61.103715	50.648541
0.1802	831.90234	60.168041	48.402366
0.1819	768.2127	59.134067	47.030411
0.1836	719.26619	58.178213	44.356436
0.1853	721.57137	57.854257	43.354414
0.187	686.78096	57.118704	41.961406
0.1887	654.73222	56.41784	40.631319
0.1904	675.58589	56.898711	42.334953
0.1921	599.12016	56.557797	40.279013
0.1938	589.7456	56.490213	39.707143
0.1955	659.67893	57.530201	43.087319
0.1972	630.06324	57.451282	42.360073
0.1989	632.67465	57.115653	40.160601
0.2006	573.44523	56.27076	38.313226
0.2023	663.11544	57.401037	41.442219
0.204	618.55459	57.037406	40.851009
0.2057	621.82488	57.089626	40.81598
0.2074	696.23789	57.81914	44.061581
0.2091	723.87388	58.146613	45.576148
0.2108	730.85432	57.73661	43.997777
0.2125	712.28297	57.56985	43.772905
0.2142	680.82985	57.197949	42.294849
0.2159	739.74581	57.777272	44.712248
0.2176	714.57554	57.506623	43.558984
0.2193	660.00144	56.603504	41.663344
0.221	669.11881	55.707175	40.903665
0.2227	605.17886	54.298988	37.89171
0.2244	725.25074	55.001069	41.902455
0.2261	730.35693	54.4739	41.470106
0.2278	709.76618	53.930235	39.66022
0.2295	682.51923	53.170516	38.699114
0.2312	611.27555	52.574428	37.648042
0.2329	625.65628	52.165272	36.81434
0.2346	595.04554	51.705594	36.418222
0.2363	619.24092	51.555211	37.183633
0.238	595.59239	51.387204	37.212844
0.2397	580.12493	50.948515	35.770495
0.2414	551.31967	50.215729	34.738125
0.2431	523.61149	49.838839	33.732589
0.2448	501.0147	49.360457	32.289067
0.2465	460.22356	48.842853	30.800591
0.2482	492.6184	48.772554	31.130722
0.2499	524.02934	48.7401	31.802356
0.2516	486.73907	48.491535	31.59921
0.2533	498.09391	48.224755	31.297992
0.255	494.78229	48.113709	31.479406
0.2567	494.315	47.779434	31.286027
0.2584	455.35941	47.34147	30.684697
0.2601	509.86282	47.491883	31.783238
0.2618	538.00074	47.482396	31.919604
0.2635	511.06032	47.11	31.02991
0.2652	502.71888	46.796004	30.168055
0.2669	470.24317	46.414303	30.039203
0.2686	532.91053	46.787904	32.260725
0.2703	518.79509	46.449428	31.764746
0.272	517.50622	46.135473	30.404633
0.2737	539.70717	46.210139	31.035406
0.2754	515.01724	45.761235	29.576409
0.2771	494.01	45.591231	29.878825
0.2788	540.57174	45.698766	31.06319
0.2805	541.36424	45.534673	30.236543
0.2822	501.89508	45.249999	29.749631
0.2839	523.45165	45.051705	29.68083
0.2856	501.28656	44.602024	28.914877
0.2873	557.32322	45.073992	30.873881
0.289	488.82185	44.335917	29.057998
0.2907	475.08336	44.20021	28.408179
0.2924	473.56033	43.904921	28.014631
0.2941	477.57003	43.989818	28.751673
0.2958	518.08946	43.961117	28.830824
0.2975	506.44086	43.546898	28.352185
0.2992	511.59303	43.57251	28.542402
0.3009	480.9682	43.325813	27.755431
0.3026	437.95846	42.89397	26.571849
0.3043	425.98495	42.647669	26.100409
0.306	407.73192	42.496524	26.441825
0.3077	448.39595	42.482947	25.939816
0.3094	443.0298	42.315036	25.960114
0.3111	438.1159	42.182025	26.222778
0.3128	432.58941	42.148305	26.536128
0.3145	425.87509	42.006632	26.281189
0.3162	482.02622	42.06673	26.772445
0.3179	431.49061	41.586876	25.84991
0.3196	427.18302	41.484208	26.118329
0.3213	441.33503	41.465002	26.365505
0.323	449.89366	41.448632	25.758865
0.3247	440.75182	41.222288	25.540491
0.3264	404.28153	40.808746	24.288225
0.3281	374.00413	40.430077	23.288593
0.3298	447.01701	40.877365	25.208236
0.3315	419.39094	40.499525	24.666331
0.3332	443.09439	40.652512	25.623944
0.3349	436.51381	40.469614	25.089538
0.3366	429.8265	40.272929	24.764489
0.3383	462.68677	40.342266	25.497886
0.34	453.54513	40.024646	24.763415
0.3417	492.34539	40.29805	26.470216
0.3434	474.49751	40.098687	25.552236
0.3451	421.63158	39.563688	23.947925
0.3468	456.98325	39.803413	24.971366
0.3485	423.35102	39.470166	24.093548
0.3502	431.80366	39.407613	24.242759
0.3519	438.45221	39.249318	23.993545
0.3536	440.25482	39.174907	24.452318
0.3553	422.70543	39.104317	24.265886
0.357	446.04154	39.150297	25.053753
0.3587	434.77614	39.018403	24.408639
0.3604	392.00805	38.534181	22.555944
0.3621	406.26431	38.489599	22.959402
0.3638	398.093	38.441651	22.773992
0.3655	414.20081	38.341058	23.012395
0.3672	412.90963	38.191758	22.910476
0.3689	407.37763	38.19414	22.918062
0.3706	403.46365	37.935197	22.250961
0.3723	413.01434	37.931902	22.482811
0.374	352.12382	37.496261	21.225825
0.3757	326.34016	37.299309	20.02381
0.3774	396.45114	37.652965	22.036194
0.3791	414.46678	37.559106	22.836185
0.3808	397.67074	37.372699	22.314754
0.3825	397.3924	37.292659	22.132486
0.3842	366.65878	37.110931	21.468132
0.3859	399.81404	37.16294	22.17584
0.3876	447.32663	37.312269	23.509114
0.3893	428.19725	37.153042	23.018155
0.391	379.56488	36.88128	21.988858
0.3927	389.35415	36.726988	21.317384
0.3944	400.62269	36.592113	21.329406
0.3961	408.03568	36.676876	22.003284
0.3978	412.17427	36.629002	22.058319
0.3995	402.67488	36.473696	21.716898
0.4012	417.4726	36.49719	22.148001
0.4029	383.53035	36.208599	21.224464
0.4046	383.58701	36.135527	20.914063
0.4063	397.81756	36.000515	20.853218
0.408	402.79412	36.062795	21.696894
0.4097	394.38373	35.949656	21.306301
0.4114	377.13218	35.797808	20.737877
0.4131	388.08714	35.710996	20.753407
0.4148	378.0978	35.485695	20.365697
0.4165	396.37571	35.571202	20.818483
0.4182	406.7445	35.655669	21.230988
0.4199	406.55939	35.587387	21.601869
0.4216	406.64698	35.446431	21.387076
0.4233	385.95133	35.32223	21.143456
0.425	364.16956	35.094969	20.377272
0.4267	392.72016	35.077098	20.28574
0.4284	376.28909	34.991487	20.174623
0.4301	366.03774	34.853117	20.018185
0.4318	374.42656	34.850669	20.011433
0.4335	364.2933	34.790305	20.126991
0.4352	352.25475	34.590631	19.867475
0.4369	390.24979	34.756622	20.592862
0.4386	371.71966	34.581041	20.157158
0.4403	356.7919	34.414384	19.489801
0.442	358.26528	34.303697	19.570525
0.4437	391.85413	34.433468	20.377103
0.4454	377.66525	34.344274	20.051466
0.4471	391.23355	34.297994	20.251159
0.4488	374.59273	34.077405	19.567343
0.4505	373.7884	34.074184	19.564767
0.4522	390.21609	34.072072	19.911546
0.4539	362.08669	33.888576	19.544876
0.4556	356.05044	33.757603	19.295928
0.4573	381.97788	33.926734	19.915722
0.459	366.00928	33.710594	19.28509
0.4607	394.53748	33.755014	19.838395
0.4624	383.83118	33.563466	19.356921
0.4641	363.9404	33.534347	19.136892
0.4658	358.29638	33.44877	18.767333
0.4675	387.59559	33.568699	19.932253
0.4692	389.79377	33.378046	19.713844
0.4709	368.63865	33.184353	19.027419
0.4726	374.37913	33.245919	19.209473
0.4743	364.42319	33.157147	18.980764
0.476	345.9371	32.910757	18.035736
0.4777	357.06615	32.964223	18.648157
0.4794	385.46943	33.129504	20.144603
0.4811	372.94829	32.95589	19.594553
0.4828	365.38887	32.792066	18.729756
0.4845	376.4099	32.893384	19.345578
0.4862	364.18998	32.673594	18.3579
0.4879	366.15512	32.676516	18.716883
0.4896	355.76906	32.508306	18.576562
0.4913	353.28203	32.446507	18.162848
0.493	366.31084	32.484114	18.375503
0.4947	364.12687	32.386975	18.415213
0.4964	365.67608	32.385485	18.758229
0.4981	353.2075	32.330639	18.160634
0.4998	371.01824	32.619936	18.704014
0.5015	398.67426	32.969475	19.776474
0.5032	364.17918	32.905819	18.930055
0.5049	361.80965	32.928676	18.489803
0.5066	359.99721	33.002562	18.81962
0.5083	342.10226	32.975011	18.772657
0.51	377.57619	33.211408	19.629205
0.5117	384.65391	33.152109	19.448776
0.5134	367.13509	33.143321	19.097457
0.5151	364.02416	33.163711	18.856662
0.5168	388.89257	33.403363	20.05076
0.5185	351.92984	33.073267	18.806244
0.5202	379.24391	33.268051	19.279372
0.5219	353.15578	33.136109	18.612066
0.5236	350.21925	33.125002	18.512891
0.5253	355.83646	33.145777	18.536784
0.527	362.63126	33.025841	18.930759
0.5287	384.30758	32.88358	19.105854
0.5304	384.33853	32.748849	19.146945
0.5321	370.4326	32.424112	18.640114
0.5338	365.04665	32.250621	18.260203
0.5355	366.36943	32.181506	18.450617
0.5372	369.9659	32.191906	18.957834
0.53889997	370.387	32.029543	18.568094
0.5406	363.24608	31.834663	17.835504
0.54230003	376.28303	31.874352	18.195411
0.544	374.91625	31.757977	18.278995
0.54569997	389.6824	31.772087	18.600358
0.5474	356.6686	31.456697	17.7917
0.54910003	367.33585	31.705802	18.563081
0.5508	370.51249	31.802208	18.292866
0.55249997	365.66401	31.807153	17.961792
0.5542	376.79381	32.044334	18.29155
0.55590003	336.34492	31.875199	17.485308
0.5576	359.95889	31.99933	17.964038
0.55929997	371.84071	32.074906	18.206847
0.561	340.39865	32.018059	17.635151
0.56270003	354.87744	32.153637	17.807892
0.5644	352.91493	32.099069	18.191768
0.56609997	351.4698	32.088698	18.130807
0.5678	356.53812	32.100012	17.882259
0.56950003	366.81941	32.264509	18.566718
0.5712	356.14877	32.162384	18.261127
0.57289997	361.16891	32.189583	18.63295
0.5746	365.96939	32.239606	18.222686
0.57630003	340.65491	32.085074	17.57222
0.578	352.79536	32.057686	18.1255
0.57969997	359.18957	31.864314	18.436291
0.5814	336.01735	31.550792	17.638621
0.58310003	351.02444	31.452281	17.446921
0.5848	331.39936	31.180556	16.937863
0.58649997	367.9338	31.243047	17.951333
0.5882	360.25862	31.049261	17.615784
0.58990003	343.63704	30.944204	17.112923
0.5916	359.96339	30.912285	17.32495
0.59329997	350.24579	30.731768	16.982612
0.595	346.63692	30.656088	16.875001
0.59670003	380.61237	30.757736	17.536925
0.5984	371.93371	30.709699	17.690406
0.60009997	337.51733	30.418806	16.777737
0.6018	349.56857	30.437077	17.107274
0.60350003	375.93246	30.462059	17.331121
0.6052	351.77001	30.282618	16.901753
0.60689997	348.68903	30.219347	16.876691
0.6086	371.58977	30.193856	17.041068
0.61030003	345.07785	30.034782	16.581421
0.612	356.00366	30.101984	17.099999
0.61369997	358.0942	29.984139	16.865076
0.6154	390.34619	30.148527	17.73356
0.61710003	351.96869	29.862929	17.154205
0.6188	349.35095	29.868033	17.304514
0.62049997	346.50818	29.693881	16.72661
0.6222	363.04798	29.836595	17.209154
0.62390003	313.66236	29.448635	15.665438
0.6256	325.86302	29.496084	16.070368
0.62729997	332.9564	29.472628	16.156911
0.629	331.0791	29.368107	15.937294
0.63070003	349.95369	29.35597	16.212751
0.6324	337.72294	29.286794	16.06996
0.63409997	345.40687	29.331961	16.356485
0.6358	347.4933	29.159536	16.017461
0.63750003	366.66431	29.247869	16.424323
0.6392	353.28094	29.226312	16.358661
0.64089997	325.09993	28.951208	15.674033
0.6426	356.9217	29.07648	16.487234
0.64430003	364.33727	29.08843	16.740766
0.646	347.89549	28.937041	16.083863
0.64769997	350.26632	28.873659	15.97089
0.6494	355.40018	28.88074	16.221537
0.65110003	360.6512	28.894628	16.387715
0.6528	368.91936	28.875588	16.707015
0.65449997	371.33132	28.818759	16.663189
0.6562	366.12003	28.685471	16.219292
0.65790003	370.3889	28.673293	16.13304
0.6596	344.32713	28.574788	15.807091
0.66129997	336.03344	28.494448	15.657416
0.663	312.58815	28.27822	14.906973
0.66470003	338.95257	28.424329	15.998317
0.6664	371.8121	28.53663	16.591304
0.66809997	356.14397	28.359386	15.898793
0.6698	350.51723	28.349672	16.176866
0.67150003	359.7255	28.303945	16.015622
0.6732	359.7766	28.220164	15.639164
0.67489997	338.38838	28.125777	15.538236
0.6766	345.62361	28.138831	15.866998
0.67830003	349.67905	28.10573	15.740123
0.68	332.91482	28.01944	15.573372
0.68169997	337.91231	28.009564	15.721168
0.6834	358.43568	27.982206	15.883691
0.68510003	343.78321	27.857075	15.49577
0.6868	342.68637	27.893885	15.359459
0.68849997	338.04726	27.756598	15.245479
0.6902	333.75892	27.737444	15.365261
0.69190003	349.4048	27.77717	15.380749
0.6936	330.30024	27.686518	15.27263
0.69529997	341.345	27.709055	15.642992
0.697	332.00329	27.563704	15.23638
0.69870003	328.4478	27.503013	14.859827
0.7004	335.66539	27.509766	14.923257
0.70209997	350.17587	27.49475	15.250827
0.7038	343.51833	27.470362	15.522689
0.70550003	344.87981	27.458343	15.486854
0.7072	347.65618	27.445654	15.511865
0.70889997	357.15016	27.422608	15.61737
0.7106	351.97479	27.291432	15.193707
0.71230003	331.53423	27.207852	14.940152
0.714	337.41078	27.21249	15.202818
0.71569997	352.51507	27.228218	15.225417
0.7174	340.99329	27.104572	14.925277
0.71910003	356.55282	27.123564	15.115206
0.7208	363.45474	27.148729	15.331415
0.72249997	388.60781	27.214195	15.849249
0.7242	368.72121	27.129733	15.607822
0.72590003	346.66447	26.973084	15.160863
0.7276	353.25617	27.041659	15.535097
0.72929997	351.27159	26.964265	15.269964
0.731	332.93941	26.72279	14.379623
0.73270003	344.01906	26.800941	14.888225
0.7344	340.95423	26.762542	14.840312
0.73609997	335.13514	26.750724	14.853566
0.7378	349.49111	26.776898	15.208564
0.73950003	338.05818	26.646073	14.811862
0.7412	336.89733	26.666049	14.902243
0.74289997	318.32993	26.505212	14.251556
0.7446	348.64417	26.609676	15.046164
0.74630003	349.10723	26.590308	15.083355
0.748	324.43334	26.49356	14.393628
0.74969997	339.47327	26.470261	14.671586
0.7514	348.35361	26.487724	15.017793
0.75310003	314.21383	26.236155	13.694478
0.7548	318.41988	26.305827	14.280543
0.75649997	331.92104	26.375413	14.796599
0.7582	335.69312	26.32258	14.670805
0.75990003	328.53932	26.244816	14.554057
0.7616	330.00152	26.212276	14.490456
0.76329997	320.64132	26.113214	14.045012
0.765	333.20109	26.138658	14.3117
0.76670003	350.16629	26.164393	14.752894
0.7684	352.92508	26.178809	14.866116
0.77009997	359.80696	26.128395	14.8573
0.7718	354.14652	26.129944	14.934303
0.77350003	318.46467	25.881588	13.843328
0.7752	335.8407	25.991709	14.360157
0.77689997	329.60364	25.919277	14.16753
0.7786	343.85836	25.938914	14.511458
0.78030003	341.12839	25.878992	14.69267
0.782	377.67279	26.050732	15.420142
0.78369997	374.0918	25.964597	15.045128
0.7854	334.54958	25.781278	14.298148
0.78710003	326.19574	25.677075	13.774628
0.7888	337.00137	25.733077	14.28025
0.79049997	342.23491	25.747316	14.512596
0.7922	324.79887	25.605512	13.831424
0.79390003	325.07165	25.604528	13.808778
0.7956	335.88544	25.581516	13.970021
0.79729997	352.43146	25.650017	14.564591
0.799	341.52023	25.595764	14.605128
0.80070003	355.32751	25.616831	14.861956
0.8024	350.62162	25.561558	14.512149
0.80409997	314.7645	25.369677	13.570719
0.8058	317.26259	25.399429	13.769733
0.80750003	329.73306	25.363664	13.898552
0.8092	337.13845	25.402902	14.264315
0.81089997	324.2045	25.326528	13.790863
0.8126	320.89462	25.290564	13.95311
0.81430003	344.37678	25.454678	14.406137
0.816	348.13315	25.63868	14.551181
0.81769997	345.29571	25.708883	14.373
0.8194	334.90689	25.752903	14.189267
0.82110003	331.50476	25.739459	14.077157
0.8228	340.12031	25.840939	14.420548
0.82449997	334.78579	25.860457	14.453416
0.8262	339.65882	25.879685	14.249002
0.82790003	312.37112	25.719379	13.481226
0.8296	306.6937	25.726229	13.588477
0.83129997	318.09603	25.840743	13.806271
0.833	330.02007	25.858835	14.04104
0.83470003	336.10869	25.856194	14.288922
0.8364	337.34045	25.859314	14.1878
0.83809997	351.91762	25.921692	14.419741
0.8398	338.4059	25.910591	14.4569
0.84150003	337.15783	25.84123	14.275896
0.8432	348.71157	25.913912	14.773906
0.84489997	350.30952	25.995962	14.931082
0.8466	348.26286	26.0383	14.521342
0.84830003	339.97879	26.155534	14.229179
0.85	342.88292	26.333781	14.521338
0.85169997	328.31323	26.433438	14.3726
0.8534	328.51035	26.53252	14.506856
0.85510003	371.88474	26.773178	15.550252
0.8568	337.57793	26.755497	14.761626
0.85849997	321.36277	27.014706	14.734711
0.8602	351.15025	27.303624	15.291319
0.86190003	341.97864	27.358581	15.146412
0.8636	319.32898	27.432278	14.682598
0.86529997	348.6468	27.77216	15.657725
0.867	337.40975	27.822479	15.550624
0.86870003	328.6417	27.889262	15.320606
0.8704	315.78488	27.936951	15.147624
0.87209997	330.33898	28.098	15.340885
0.8738	318.64531	28.123476	15.294627
0.87550003	313.34393	28.176267	15.145012
0.8772	320.12319	28.371305	15.392349
0.87889997	316.02623	28.397544	15.101246
0.8806	337.51032	28.601532	15.666927
0.88230003	337.35344	28.714536	16.016926
0.884	333.86204	28.84192	16.079792
0.88569997	319.97061	28.856163	15.71883
0.8874	333.73851	29.00669	16.061534
0.88910003	346.03166	29.140287	16.24354
