# HDF: fcm_201403_060  
# /archive/messung/kmc/daten/2014/1Q/pilatus_201403_0948.tif
# Energy (eV)=8800 Distance (mm)=4.5326  Normalization factor =0.00050422391  Center=(499.5,536.2)  Binsize (nm-1)=0.0017
# Normalized by solid angle (1/distance^2), time (PilatusAcqTime_GRAL) and intensity (K4norm_mean)
# Detector quantum efficiency = 95.72% Monitor sensitivity (ph/s/A) = 4.538e+16 Sample thickness (mm) =1 Direct beam(photons * sr) = 0.5268
# q(nm-1)	I_norm	err_pois	err_stdv
0	0	935.59778	99.955616
0.0017	152.88336	502.01594	196.43686
0.0034	227.66838	369.1486	166.35481
0.0051	299.09477	308.97183	149.82016
0.0068	63.524462	255.13583	64.717393
0.0085	27.615342	226.89161	38.726927
0.0102	146.13758	219.16416	78.303426
0.0119	197.50861	218.04203	90.580018
0.0136	154.16601	210.31773	78.722306
0.0153	88.84883	201.8674	58.396262
0.017	164.05027	201.0776	91.711914
0.0187	96.345573	190.22619	60.604105
0.0204	70.17863	182.19838	48.099005
0.0221	228.99307	173.1532	220.97918
0.0238	3469.2573	281.04802	1494.3144
0.0255	27589.089	811.54496	4472.5082
0.0272	83636.525	1473.7317	5471.7373
0.0289	115364.43	1489.0844	3002.2171
0.0306	107974.27	1229.5434	1976.5357
0.0323	95636.402	1069.263	1642.6564
0.034	89199.757	996.41947	1378.0392
0.0357	83952.83	945.58811	1115.8907
0.0374	79673.014	893.33374	1030.6179
0.0391	76302.387	850.50507	1032.71
0.0408	70654.346	794.83529	1012.8272
0.0425	66716.966	754.55973	1023.6963
0.0442	62450.987	719.15789	928.14991
0.0459	57298.25	675.53921	805.04432
0.0476	53933.865	641.18146	844.03682
0.0493	51394.745	613.97131	793.51978
0.051	47958.514	576.64003	780.6152
0.0527	44698.692	550.38207	719.84717
0.0544	41384.371	519.50704	649.00925
0.0561	37741.466	487.53971	598.24356
0.0578	34988.406	462.30975	562.9744
0.0595	32970.321	440.77555	560.1844
0.0612	30155.379	415.99755	574.63151
0.0629	26420.956	379.15758	488.05186
0.0646	23832.852	357.48138	476.3853
0.0663	21692.062	337.66667	424.63914
0.068	19984.966	318.8783	424.48756
0.0697	18158.689	300.00606	374.27126
0.0714	15881.526	275.11157	341.17945
0.0731	14826.508	266.30721	327.55768
0.0748	13195.535	245.76508	312.50349
0.0765	11111.272	221.94536	291.65137
0.0782	9667.1493	206.9992	264.0386
0.0799	8581.633	192.92944	234.44516
0.0816	7569.2234	178.88451	211.94153
0.0833	6215.2725	159.72682	187.02057
0.085	5405.4206	148.35696	172.48045
0.0867	4912.6453	141.21885	163.80041
0.0884	4182.3048	129.42339	151.85308
0.0901	3713.8056	121.92014	137.31289
0.0918	3212.4127	113.52352	128.36793
0.0935	2760.0486	105.79647	117.40307
0.0952	2366.7802	99.610323	110.40218
0.0969	2119.2303	94.970414	101.17814
0.0986	1830.386	90.904875	94.817685
0.1003	1550.9344	86.204191	85.683348
0.102	1498.3597	84.856974	83.803525
0.1037	1447.3831	82.09377	77.380105
0.1054	1363.641	81.027768	76.115058
0.1071	1288.2479	80.02331	74.799292
0.1088	1209.9121	78.181351	72.069838
0.1105	1349.8103	79.127982	75.517127
0.1122	1491.7612	80.036032	75.006693
0.1139	1346.096	77.696237	71.815537
0.1156	1366.6867	77.284945	72.036428
0.1173	1482.2326	77.607372	76.054357
0.119	1607.1199	79.126475	79.811329
0.1207	1682.7553	80.516618	81.010768
0.1224	1673.2861	79.325232	79.842625
0.1241	1663.2994	78.480816	79.865166
0.1258	1632.3787	77.473979	78.025897
0.1275	1652.7681	77.12921	76.794275
0.1292	1726.0797	77.74361	77.171278
0.1309	1857.5449	79.050931	79.642132
0.1326	1851.563	77.779265	79.079937
0.1343	1890.2294	78.501362	79.916418
0.136	1708.1434	74.857792	73.230201
0.1377	1563.0919	73.098655	72.36634
0.1394	1715.598	75.005474	72.101008
0.1411	1668.6446	75.047816	74.550326
0.1428	1618.2133	75.176532	76.169768
0.1445	1444.4943	73.024758	73.602594
0.1462	1394.0015	72.494029	69.446122
0.1479	1486.7474	73.684396	69.787877
0.1496	1327.8189	71.998416	69.162875
0.1513	1130.3397	68.895704	60.081226
0.153	1165.3414	70.47802	63.131434
0.1547	972.95152	67.383996	57.360818
0.1564	1044.9044	68.44507	59.157044
0.1581	1050.4082	68.102547	58.033577
0.1598	935.29262	66.870977	56.588378
0.1615	948.22835	66.831096	55.188187
0.1632	910.32552	66.417247	54.316346
0.1649	881.2081	66.146848	54.345855
0.1666	919.25373	66.320012	54.258637
0.1683	861.65913	65.035771	52.436424
0.17	739.75982	62.411694	47.628434
0.1717	710.86517	61.236986	45.353558
0.1734	679.7666	60.610466	46.011652
0.1751	729.35326	60.732674	46.142692
0.1768	684.32658	59.585306	44.371301
0.1785	714.82901	59.400454	45.007818
0.1802	753.64171	59.663329	48.006941
0.1819	756.66708	58.750986	47.109633
0.1836	764.88461	59.120498	48.074731
0.1853	718.17638	58.064168	45.799814
0.187	797.21629	58.134001	46.161905
0.1887	797.33344	58.10761	46.976539
0.1904	809.02276	57.871998	45.769408
0.1921	805.43542	58.039502	46.008881
0.1938	855.22439	58.287678	46.274489
0.1955	821.32045	58.709886	48.002829
0.1972	803.38375	58.915384	47.47104
0.1989	854.156	59.156881	46.56572
0.2006	776.1927	57.976496	44.658889
0.2023	782.89371	58.581387	46.737365
0.204	800.48162	59.015209	48.495007
0.2057	772.67641	58.340071	45.592067
0.2074	705.39751	57.683496	43.837056
0.2091	803.82427	59.229123	48.721362
0.2108	831.17118	58.929108	47.109452
0.2125	771.34068	57.812767	44.57418
0.2142	747.98793	58.013056	45.257301
0.2159	664.19489	56.836088	41.667417
0.2176	698.29819	57.302799	43.747252
0.2193	754.56919	57.40846	44.369022
0.221	728.93462	56.077922	42.759994
0.2227	674.99202	54.856	40.40414
0.2244	717.70401	55.087176	41.942364
0.2261	684.21534	54.226484	40.464199
0.2278	592.76054	53.047894	37.845038
0.2295	557.33038	52.237331	36.031217
0.2312	597.40391	52.294944	36.594827
0.2329	596.86328	51.689317	35.263724
0.2346	625.8587	52.028715	37.268813
0.2363	679.18974	52.038534	37.855592
0.238	626.89901	51.361427	37.307508
0.2397	622.95042	51.059332	37.108017
0.2414	668.89317	51.156535	37.752324
0.2431	659.1772	50.5768	36.203665
0.2448	641.51741	50.182981	35.892486
0.2465	620.06868	49.94714	35.564466
0.2482	634.26123	49.841212	36.395942
0.2499	656.73987	49.76146	36.83283
0.2516	679.14458	49.456569	34.993653
0.2533	674.57981	49.411479	36.278411
0.255	651.5032	49.163953	36.548086
0.2567	673.22725	49.0339	36.365554
0.2584	618.9682	48.540677	35.197803
0.2601	550.19991	47.778026	32.755533
0.2618	569.45371	47.581415	33.194291
0.2635	679.25091	48.110515	35.087146
0.2652	666.45366	47.650137	33.449677
0.2669	610.22002	47.399316	33.377292
0.2686	591.47121	47.067886	33.769326
0.2703	638.49524	47.274836	34.658023
0.272	626.83795	46.918449	33.382209
0.2737	659.90733	47.095178	34.979065
0.2754	650.44421	46.816515	34.452015
0.2771	594.36158	46.064581	32.492064
0.2788	648.4351	46.253381	33.094292
0.2805	621.51729	46.081544	32.900951
0.2822	589.70343	45.704101	31.996255
0.2839	637.32708	46.006281	33.601334
0.2856	603.54874	45.342092	32.125703
0.2873	542.4197	44.837506	30.430616
0.289	538.88041	44.630877	30.460089
0.2907	581.86199	44.835858	31.164521
0.2924	544.01395	44.228167	29.295407
0.2941	593.41099	44.746051	31.268273
0.2958	559.18581	44.217605	30.784234
0.2975	542.34191	43.9038	30.352798
0.2992	561.60233	43.76815	30.027634
0.3009	582.3551	43.96554	30.823036
0.3026	562.35581	43.690896	29.976557
0.3043	550.55466	43.335658	29.28436
0.306	546.40943	43.229172	29.602218
0.3077	535.10133	43.003508	28.915192
0.3094	605.36055	43.49143	30.941033
0.3111	553.15494	42.822623	29.76108
0.3128	557.31531	42.796152	29.662887
0.3145	572.77478	42.940598	30.578466
0.3162	618.06052	43.048912	31.350559
0.3179	597.35172	42.587768	30.422472
0.3196	575.18976	42.269453	29.104442
0.3213	559.5184	42.195789	29.318501
0.323	592.04329	42.353844	30.074789
0.3247	583.6264	42.031199	29.335957
0.3264	563.8676	41.707834	29.221049
0.3281	597.34209	41.880337	29.705301
0.3298	567.86165	41.435074	28.219406
0.3315	571.50774	41.393316	28.838918
0.3332	553.18018	41.254703	28.793594
0.3349	589.453	41.3311	28.871218
0.3366	651.45273	41.662038	30.552064
0.3383	594.88981	40.902768	28.53964
0.34	575.52844	40.890178	28.490188
0.3417	546.66393	40.486016	27.706975
0.3434	556.93189	40.524929	27.301629
0.3451	517.33238	40.053106	26.082325
0.3468	498.62814	39.962505	26.575051
0.3485	555.0534	40.216817	27.646524
0.3502	570.15641	40.159895	27.877081
0.3519	573.24975	40.034381	27.375686
0.3536	523.79602	39.539909	26.032002
0.3553	477.54069	39.18261	25.033473
0.357	548.79521	39.788928	27.34854
0.3587	539.14562	39.436822	26.564652
0.3604	572.80067	39.489301	26.952067
0.3621	549.44868	39.307027	26.763933
0.3638	507.98836	39.006779	26.096499
0.3655	533.45667	39.040185	26.72151
0.3672	577.70552	39.265701	28.347962
0.3689	563.92299	39.042619	27.202223
0.3706	561.49435	38.856223	26.632211
0.3723	546.03387	38.616551	26.174527
0.374	547.37852	38.553083	26.185436
0.3757	522.24504	38.343274	25.62613
0.3774	568.39011	38.71266	27.028457
0.3791	552.36896	38.374666	26.708949
0.3808	541.77699	38.126616	26.185791
0.3825	572.17959	38.122944	26.441872
0.3842	583.98842	38.194491	26.714506
0.3859	561.98764	38.061249	26.459642
0.3876	552.10464	37.897261	26.066862
0.3893	565.82665	37.958022	26.581222
0.391	526.77954	37.606877	25.677441
0.3927	551.73405	37.683972	26.086669
0.3944	536.60539	37.295953	24.945781
0.3961	532.16084	37.24236	24.786156
0.3978	554.84612	37.371719	25.704531
0.3995	564.97146	37.319821	25.666887
0.4012	530.03518	37.03528	25.112355
0.4029	535.01817	37.092723	25.70293
0.4046	527.91578	36.892545	25.206661
0.4063	504.29942	36.562294	24.233754
0.408	532.92502	36.700947	24.676337
0.4097	529.05509	36.622171	24.504853
0.4114	532.85663	36.57468	24.878468
0.4131	588.21392	36.89581	26.127031
0.4148	590.09105	36.59264	25.63381
0.4165	561.16472	36.267299	24.521423
0.4182	549.58787	36.389499	25.098332
0.4199	569.75633	36.414744	25.518569
0.4216	581.05378	36.249985	25.053983
0.4233	577.09142	36.206058	25.109653
0.425	546.43703	35.922752	24.238852
0.4267	581.42277	36.109199	25.224609
0.4284	538.90458	35.835896	24.659907
0.4301	525.91696	35.699315	23.98294
0.4318	541.09645	35.813699	24.801512
0.4335	538.22765	35.632644	24.26001
0.4352	521.00146	35.412639	23.983242
0.4369	567.11893	35.689201	25.024081
0.4386	562.28003	35.580225	24.710564
0.4403	540.34545	35.280679	24.157977
0.442	564.04149	35.404217	24.777314
0.4437	546.40139	35.185258	24.174584
0.4454	553.96344	35.168084	23.73395
0.4471	543.28707	34.949254	23.434323
0.4488	556.95707	34.987188	23.825661
0.4505	521.8949	34.679364	23.325519
0.4522	568.51104	35.103496	24.822144
0.4539	553.48321	34.885143	24.517931
0.4556	512.30713	34.468055	23.176007
0.4573	556.93295	34.677942	23.637339
0.459	548.75975	34.612058	23.685223
0.4607	535.75634	34.482972	23.580459
0.4624	540.9936	34.389138	23.358232
0.4641	544.27023	34.242779	23.06965
0.4658	564.08665	34.471191	23.562279
0.4675	520.31212	34.171254	22.844221
0.4692	494.61492	33.748222	21.783437
0.4709	549.00208	34.101343	23.434635
0.4726	529.82311	34.037003	23.305338
0.4743	522.65422	33.819843	22.825604
0.476	585.97365	34.194268	24.251644
0.4777	574.44303	34.072814	24.11665
0.4794	526.36255	33.633137	22.560294
0.4811	532.08661	33.556026	22.104035
0.4828	542.2305	33.580899	22.409464
0.4845	509.24872	33.371584	21.986761
0.4862	519.68932	33.494871	22.837241
0.4879	527.85266	33.388282	22.525946
0.4896	533.79883	33.352375	22.532619
0.4913	531.37202	33.289927	22.72164
0.493	556.20655	33.480154	23.442884
0.4947	492.92205	32.880759	21.309898
0.4964	523.87983	33.01747	21.819602
0.4981	553.39373	33.260437	22.546888
0.4998	557.79766	33.472902	22.822078
0.5015	586.36256	33.807342	23.39661
0.5032	539.36596	33.598453	22.797971
0.5049	559.13055	33.875421	23.198999
0.5066	562.0419	33.922391	23.255269
0.5083	517.79978	33.800534	22.70403
0.51	520.60534	33.750878	22.171962
0.5117	523.21005	33.780431	22.481159
0.5134	488.08508	33.633177	21.845922
0.5151	507.85342	33.939638	22.492357
0.5168	507.22614	33.884586	22.584514
0.5185	532.14211	33.978024	23.367997
0.5202	541.7021	34.025249	23.17203
0.5219	551.27309	34.190552	23.563775
0.5236	503.15171	33.752596	22.597595
0.5253	574.82089	34.299187	24.02159
0.527	573.945	34.001921	23.290126
0.5287	517.36341	33.357333	21.831336
0.5304	529.66234	33.408137	22.698177
0.5321	542.07659	33.203349	22.470411
0.5338	523.44298	32.959436	22.130553
0.5355	541.1114	32.925838	22.094514
0.5372	532.60957	32.868424	21.99617
0.53889997	518.29532	32.679058	21.69936
0.5406	518.92349	32.448363	21.05161
0.54230003	539.44617	32.592454	21.762107
0.544	530.59396	32.500401	21.755905
0.54569997	516.72726	32.301257	21.442988
0.5474	535.62554	32.201454	21.28932
0.54910003	525.35014	32.254287	20.961915
0.5508	549.78889	32.505052	21.669609
0.55249997	563.99048	32.715194	22.276244
0.5542	502.40734	32.622073	21.94847
0.55590003	537.92604	33.00669	22.979847
0.5576	517.79848	32.819818	22.328735
0.55929997	542.27028	32.861121	22.388033
0.561	532.69185	32.951859	22.310777
0.56270003	520.81652	32.921582	21.972328
0.5644	534.86225	32.851299	21.906579
0.56609997	528.99398	32.835732	21.800694
0.5678	535.79759	32.922971	21.960723
0.56950003	512.50005	32.874919	21.855566
0.5712	528.71075	32.999871	22.325379
0.57289997	572.91113	33.16138	22.973479
0.5746	531.39874	33.020144	22.471177
0.57630003	529.90373	32.965169	22.156916
0.578	522.56001	32.739981	21.789564
0.57969997	524.39139	32.435208	21.179303
0.5814	561.42573	32.599052	22.619813
0.58310003	556.70711	32.433723	22.408616
0.5848	497.49752	31.865913	20.764245
0.58649997	503.94863	31.801721	20.743414
0.5882	506.00437	31.708745	21.038817
0.58990003	542.61262	31.834255	21.329318
0.5916	516.30259	31.695342	21.304205
0.59329997	515.328	31.570102	21.252896
0.595	511.65957	31.375475	20.890217
0.59670003	533.48764	31.423377	20.954317
0.5984	499.54297	31.173923	20.251078
0.60009997	535.13077	31.29504	21.373174
0.6018	523.99851	31.094707	21.075303
0.60350003	526.66653	31.148463	21.003529
0.6052	524.80069	30.979496	20.340061
0.60689997	505.48814	30.856784	20.058649
0.6086	504.6985	30.848212	20.753987
0.61030003	529.52989	30.834008	20.730287
0.612	542.98309	30.910858	20.89825
0.61369997	524.55192	30.730923	20.720511
0.6154	513.44077	30.58634	20.624599
0.61710003	546.89102	30.709853	21.037965
0.6188	511.98506	30.516538	20.395509
0.62049997	503.48873	30.383814	20.031572
0.6222	560.11518	30.52098	20.708235
0.62390003	558.61308	30.493491	20.618209
0.6256	540.59127	30.322793	20.094408
0.62729997	550.24761	30.377343	20.608067
0.629	529.51411	30.136997	20.104216
0.63070003	532.41961	30.110243	20.115776
0.6324	524.39801	30.139058	20.25689
0.63409997	518.74831	29.967291	19.876211
0.6358	529.26805	29.975263	20.027272
0.63750003	499.94631	29.756327	19.398476
0.6392	499.09608	29.854483	19.730607
0.64089997	496.63351	29.669051	19.344526
0.6426	528.81737	29.770908	19.933662
0.64430003	527.26355	29.757554	20.285723
0.646	545.60299	29.803469	20.383845
0.64769997	534.60946	29.661722	20.086852
0.6494	551.69043	29.720087	20.411852
0.65110003	517.01356	29.573895	19.976162
0.6528	505.63342	29.445374	19.577223
0.65449997	524.58685	29.350246	19.427975
0.6562	525.68804	29.346916	19.71005
0.65790003	526.87098	29.392855	19.812451
0.6596	524.95313	29.302395	19.555075
0.66129997	532.69906	29.256324	19.524378
0.663	506.75684	29.016982	18.792855
0.66470003	488.44146	28.934569	18.53286
0.6664	492.62591	28.955145	19.054058
0.66809997	536.3176	29.17363	19.921787
0.6698	503.74607	28.918175	19.208968
0.67150003	524.89733	28.944379	19.300714
0.6732	539.93266	28.954338	19.676674
0.67489997	524.06785	28.806597	19.166667
0.6766	505.99308	28.755146	19.435588
0.67830003	512.84888	28.819218	19.909107
0.68	505.76765	28.702714	19.218508
0.68169997	503.96589	28.639986	18.990758
0.6834	502.75984	28.589139	18.956808
0.68510003	484.96077	28.383676	18.431586
0.6868	525.19085	28.572222	18.88539
0.68849997	510.9983	28.425225	18.713412
0.6902	504.23795	28.382463	18.666643
0.69190003	513.90143	28.397717	18.770822
0.6936	533.41311	28.458025	19.159073
0.69529997	511.14529	28.280953	18.659064
0.697	488.72682	28.062699	17.892766
0.69870003	513.8652	28.254309	18.652531
0.7004	527.73297	28.246282	18.718137
0.70209997	518.23634	28.095163	18.464035
0.7038	527.91608	28.155967	18.968874
0.70550003	511.54035	28.028359	18.476438
0.7072	479.41276	27.994462	18.37808
0.70889997	493.78091	27.939418	18.587863
0.7106	516.35194	27.984438	18.989304
0.71230003	537.3419	27.994656	18.958597
0.714	517.43652	27.864068	18.646721
0.71569997	505.97783	27.787222	18.212224
0.7174	528.71246	27.791406	18.416317
0.71910003	519.29598	27.662495	18.156603
0.7208	498.65633	27.670855	18.22858
0.72249997	504.72988	27.651592	18.171708
0.7242	518.37517	27.675851	18.315071
0.72590003	534.00552	27.610397	18.406027
0.7276	532.60602	27.637274	18.413365
0.72929997	494.55723	27.467819	17.961801
0.731	522.49162	27.544866	18.497524
0.73270003	502.1085	27.336134	17.729572
0.7344	492.06245	27.283419	17.526157
0.73609997	499.03195	27.29689	17.639409
0.7378	517.96818	27.393991	18.345906
0.73950003	509.20303	27.280892	18.059505
0.7412	477.19081	27.10361	17.310151
0.74289997	489.88286	27.158775	17.579579
0.7446	505.55475	27.160803	18.00402
0.74630003	512.58604	27.181265	17.988812
0.748	491.0217	27.044126	17.373485
0.74969997	502.84637	27.031965	17.497807
0.7514	513.01007	27.051303	18.068659
0.75310003	519.35644	27.088769	18.313029
0.7548	509.17519	27.006919	17.962357
0.75649997	507.51368	26.966701	17.652846
0.7582	493.65251	26.792681	17.29145
0.75990003	502.66409	26.837961	17.670114
0.7616	531.52262	26.952488	18.097894
0.76329997	515.81142	26.825892	17.865616
0.765	525.73012	26.884841	18.102039
0.76670003	512.94753	26.770638	17.822545
0.7684	508.90946	26.704191	17.555431
0.77009997	505.21679	26.627703	17.558305
0.7718	500.26967	26.641958	17.567034
0.77350003	508.21526	26.563446	17.363902
0.7752	492.59502	26.490412	17.243959
0.77689997	488.13827	26.456199	17.07617
0.7786	530.1035	26.660983	18.142072
0.78030003	534.71236	26.533766	17.864814
0.782	519.43777	26.484496	17.95684
0.78369997	520.9647	26.531838	17.954763
0.7854	502.14308	26.385506	17.576205
0.78710003	512.24743	26.430563	17.720324
0.7888	493.0319	26.297413	17.435556
0.79049997	513.04429	26.357399	17.616781
0.7922	507.62143	26.224479	17.200528
0.79390003	492.42291	26.183968	17.029366
0.7956	486.26972	26.164661	16.963718
0.79729997	510.134	26.151744	17.29986
0.799	536.00813	26.274973	17.888106
0.80070003	538.7447	26.200037	17.571142
0.8024	516.51543	26.125586	17.299664
0.80409997	484.54541	26.002551	16.884466
0.8058	513.09169	26.037353	17.289546
0.80750003	507.80371	26.04587	17.58849
0.8092	487.40531	25.90205	16.932692
0.81089997	504.89408	25.933099	16.899768
0.8126	506.16945	25.906403	17.145207
0.81430003	510.85662	25.972241	17.184375
0.816	514.69664	26.227685	17.364486
0.81769997	510.29193	26.265884	17.125918
0.8194	504.31017	26.338702	17.429746
0.82110003	514.00037	26.361129	17.320495
0.8228	506.50688	26.37292	17.229443
0.82449997	511.2252	26.513408	17.589661
0.8262	488.77298	26.352784	17.049752
0.82790003	509.02536	26.470015	17.613907
0.8296	502.01056	26.386413	17.444341
0.83129997	499.89902	26.534351	17.560088
0.833	500.41064	26.476722	17.415784
0.83470003	478.97621	26.297899	16.864091
0.8364	471.10361	26.296674	16.747251
0.83809997	509.94279	26.543432	17.65975
0.8398	511.4034	26.627588	18.153675
0.84150003	485.94396	26.336096	17.063121
0.8432	496.71827	26.40337	17.091395
0.84489997	499.17351	26.44619	17.235788
0.8466	503.84773	26.621475	17.69241
0.84830003	468.92487	26.65827	17.127605
0.85	484.10572	26.834601	17.208054
0.85169997	484.77158	26.981343	17.413032
0.8534	495.50442	27.188895	17.966572
0.85510003	504.38713	27.203823	17.89824
0.8568	489.08703	27.260071	17.63811
0.85849997	510.01538	27.730643	18.295764
0.8602	490.29872	27.843522	18.195318
0.86190003	509.84982	28.076138	18.853349
0.8636	504.07174	28.099551	18.631778
0.86529997	521.38033	28.456762	19.137892
0.867	496.43705	28.364823	18.293402
0.86870003	461.17283	28.260752	17.520142
0.8704	500.74216	28.567499	18.598371
0.87209997	525.19162	28.863046	19.318567
0.8738	499.93065	28.814693	18.899196
0.87550003	498.09862	28.89524	19.22896
0.8772	520.67479	29.183501	19.529597
0.87889997	478.91601	29.013879	18.829772
0.8806	493.29128	29.173486	18.698006
0.88230003	473.33203	29.143978	18.398028
0.884	496.72572	29.356988	18.743668
0.88569997	501.99661	29.610239	19.428934
