# HDF: fcm_201403_060  
# /archive/messung/kmc/daten/2014/1Q/pilatus_201403_0943.tif
# Energy (eV)=8800 Distance (mm)=4.5326  Normalization factor =0.0005053237  Center=(497.5,538.2)  Binsize (nm-1)=0.0017
# Normalized by solid angle (1/distance^2), time (PilatusAcqTime_GRAL) and intensity (K4norm_mean)
# Detector quantum efficiency = 95.72% Monitor sensitivity (ph/s/A) = 4.538e+16 Sample thickness (mm) =1 Direct beam(photons * sr) = 0.5279
# q(nm-1)	I_norm	err_pois	err_stdv
0	0	933.56154	0
0.0017	0	493.74409	10.160337
0.0034	62.047223	363.60204	90.76922
0.0051	65.127082	298.86878	75.589621
0.0068	56.859275	266.04945	61.572187
0.0085	151.54429	258.79895	96.582458
0.0102	72.749296	245.10454	64.669946
0.0119	149.46107	236.48191	87.303182
0.0136	130.96311	224.95077	77.634071
0.0153	43.526726	213.98196	44.241974
0.017	9.651976	204.79342	20.111955
0.0187	34.667081	190.43732	35.381296
0.0204	45.062929	171.78259	36.012155
0.0221	118.39352	169.59747	96.934158
0.0238	2422.85	228.73746	2760.7803
0.0255	61590.499	1034.0006	11853.142
0.0272	185500.84	1860.2965	14170.68
0.0289	301274.12	2533.6045	7750.0956
0.0306	305522.77	2354.9898	4616.9435
0.0323	307932.9	2232.4701	4402.1428
0.034	297244.85	1992.7884	4573.1805
0.0357	284937.11	1793.5403	4266.8154
0.0374	272877.59	1692.9527	4051.3881
0.0391	257182.06	1621.3588	3797.6928
0.0408	239441.9	1532.4533	3716.2627
0.0425	222470.62	1421.1232	3504.3531
0.0442	210635.64	1377.4767	3371.0802
0.0459	191707.02	1290.7382	3126.6
0.0476	179597.66	1214.4661	3133.5907
0.0493	166540.03	1138.1033	3010.9158
0.051	152871.01	1065.9512	2780.8525
0.0527	139616.19	1011.5691	2634.0349
0.0544	124842.17	932.00438	2443.4569
0.0561	113540.48	871.24617	2263.799
0.0578	102325.49	821.69442	1980.8937
0.0595	91861.265	764.24835	1876.3797
0.0612	82060.678	711.09631	1750.2893
0.0629	71549.54	651.66413	1586.5289
0.0646	64484.014	608.98606	1483.5601
0.0663	57529.456	563.28507	1357.3304
0.068	50495.044	523.61228	1244.5824
0.0697	43369.511	473.85293	1115.2372
0.0714	38025.041	438.47319	958.70519
0.0731	32340.344	400.63192	861.85832
0.0748	28082.033	364.04814	803.42786
0.0765	24535.799	335.98995	722.85478
0.0782	20718.404	302.46193	638.21367
0.0799	17332.655	276.03657	539.12798
0.0816	14378.463	248.25913	479.79631
0.0833	11864.564	221.464	421.90723
0.085	9641.4009	200.10712	345.71394
0.0867	8066.993	180.18879	285.91655
0.0884	6847.5356	164.89603	260.6857
0.0901	5569.8588	147.2851	218.75745
0.0918	4570.0037	133.07825	188.95252
0.0935	3751.7547	121.22206	159.31503
0.0952	3490.633	115.58788	144.85486
0.0969	3099.7994	109.04078	127.68739
0.0986	2645.3752	101.40396	110.29192
0.1003	2671.5934	101.66912	111.08888
0.102	2580.5768	99.210621	107.10673
0.1037	2397.5589	94.413236	102.65145
0.1054	2633.9066	97.921317	104.85028
0.1071	2726.5897	98.619255	109.72336
0.1088	2772.3575	98.564252	111.0036
0.1105	2934.2681	100.10995	113.40394
0.1122	3216.0068	102.13522	109.71761
0.1139	3497.8378	105.61163	114.3304
0.1156	3635.0363	106.02449	115.5232
0.1173	3664.1363	105.18246	123.96548
0.119	3628.6915	104.44655	122.6285
0.1207	3563.1552	103.33024	113.43796
0.1224	3702.8946	104.05495	118.44031
0.1241	3914.3676	105.65354	123.34328
0.1258	3858.7467	104.03165	114.06967
0.1275	3788.8107	102.52827	116.49333
0.1292	3660.124	100.85323	115.07644
0.1309	3274.967	95.243974	107.13257
0.1326	3251.6561	94.880803	108.23308
0.1343	3078.0985	91.854746	103.36412
0.136	3041.2624	91.440095	100.51801
0.1377	2893.0684	90.082931	97.637514
0.1394	2760.815	89.880198	100.03199
0.1411	2435.1511	86.023439	97.254799
0.1428	2394.5221	85.925929	92.390991
0.1445	2227.3149	82.873981	92.397958
0.1462	2020.8202	80.893241	88.07041
0.1479	1866.9752	78.525363	81.215386
0.1496	1841.2025	78.722839	82.006972
0.1513	1551.6998	75.511706	78.670225
0.153	1393.1705	73.427329	72.728028
0.1547	1389.7347	73.4326	69.293874
0.1564	1286.1404	72.10039	67.624383
0.1581	1109.3521	69.126962	62.416321
0.1598	1021.3307	67.932389	58.725006
0.1615	1005.4221	67.771862	56.796409
0.1632	1090.6348	69.085465	60.094563
0.1649	958.50467	66.340085	57.352309
0.1666	953.69199	65.407191	55.101983
0.1683	933.35765	64.256681	53.391943
0.17	1009.9265	64.270475	54.027505
0.1717	993.59869	63.302652	53.217357
0.1734	923.62019	61.796432	50.239911
0.1751	958.42835	62.318073	51.506222
0.1768	961.29167	61.731185	52.302422
0.1785	980.1326	61.505912	52.413121
0.1802	1017.2578	61.487626	53.148373
0.1819	1084.1834	61.720577	54.030719
0.1836	1062.7955	61.325687	53.867177
0.1853	1026.2046	60.365712	53.092433
0.187	1173.7887	61.787847	56.862979
0.1887	1119.571	60.444907	53.79973
0.1904	1014.8333	59.267319	51.521512
0.1921	1091.5788	59.903814	52.771191
0.1938	1047.2857	59.261746	52.883154
0.1955	1035.382	59.320859	50.754527
0.1972	1022.538	59.588237	49.734234
0.1989	1034.5926	60.00601	50.606488
0.2006	1005.2097	59.697462	51.312819
0.2023	921.87943	58.749301	48.302294
0.204	954.33083	59.523768	50.542672
0.2057	979.89103	59.435635	50.417405
0.2074	934.57611	59.312503	51.403097
0.2091	884.4484	58.868334	49.469078
0.2108	838.48125	58.201356	46.503807
0.2125	770.8545	57.414548	45.424534
0.2142	817.61707	57.850625	46.264491
0.2159	798.8636	57.577143	46.773629
0.2176	784.41873	57.720501	47.457317
0.2193	755.02356	57.187462	43.983154
0.221	771.86218	57.16501	44.642256
0.2227	784.78008	56.902733	44.364616
0.2244	699.6678	55.37119	41.511345
0.2261	713.69889	54.872254	41.191813
0.2278	702.84022	53.992819	39.661526
0.2295	652.48326	52.915157	38.329445
0.2312	644.5585	52.897954	39.182761
0.2329	680.60465	52.792629	39.414208
0.2346	756.93347	53.047537	40.377286
0.2363	676.75052	52.11816	39.811408
0.238	682.08213	51.915325	39.279943
0.2397	680.32527	51.463814	38.239148
0.2414	654.19423	50.740531	36.638702
0.2431	696.70116	51.077233	38.40181
0.2448	730.57118	50.998303	38.838772
0.2465	726.33005	51.018621	39.701302
0.2482	715.86864	50.53882	38.233339
0.2499	707.53641	49.995084	37.573987
0.2516	770.72033	50.452666	38.461284
0.2533	707.87128	49.552361	37.480494
0.255	714.13248	49.655474	37.986754
0.2567	692.70873	49.256895	37.394521
0.2584	672.06323	48.832123	36.000625
0.2601	661.15555	48.55254	35.813179
0.2618	715.75853	48.457318	35.630561
0.2635	722.43233	48.477746	36.681039
0.2652	718.22358	48.49475	37.776841
0.2669	690.6968	48.036696	36.820748
0.2686	712.80893	47.970923	37.126616
0.2703	720.69901	47.823599	36.832628
0.272	690.96249	47.507336	35.722546
0.2737	597.87609	46.277731	32.179488
0.2754	647.07138	46.710451	33.572558
0.2771	674.56767	46.357667	33.192977
0.2788	702.83385	46.578649	34.394439
0.2805	689.05724	46.783379	36.563694
0.2822	707.86362	46.750673	36.382039
0.2839	650.85285	45.887737	34.216046
0.2856	629.3838	45.656482	33.9697
0.2873	617.23637	45.299286	32.688936
0.289	631.86548	45.216066	32.028198
0.2907	649.23034	44.969219	32.347671
0.2924	654.81655	45.030864	33.576311
0.2941	640.98363	44.978843	33.812723
0.2958	643.20835	44.758543	33.319873
0.2975	620.95272	44.084351	31.072743
0.2992	651.58422	44.49606	32.991177
0.3009	666.24877	44.479911	33.022708
0.3026	643.73873	44.090713	32.309204
0.3043	646.61466	44.02104	32.631423
0.306	612.22081	43.512716	30.930008
0.3077	618.29164	43.536277	31.482328
0.3094	619.28015	43.353327	31.241656
0.3111	658.63919	43.513232	32.247459
0.3128	632.18242	43.093808	31.447138
0.3145	641.1421	43.098401	31.482535
0.3162	654.39416	43.16218	31.987169
0.3179	623.50093	42.675125	30.921659
0.3196	636.85373	42.561064	30.677943
0.3213	632.27318	42.511726	30.972198
0.323	659.56359	42.763118	31.983125
0.3247	640.84586	42.332924	30.847015
0.3264	653.59338	42.162227	31.178539
0.3281	697.06133	42.592222	32.583058
0.3298	648.51466	42.001637	31.138966
0.3315	618.79129	41.641359	30.380775
0.3332	624.16294	41.587469	30.099859
0.3349	630.05094	41.588148	30.122851
0.3366	660.29897	41.677947	30.904998
0.3383	642.08915	41.275335	30.033577
0.34	627.94771	41.052521	30.23837
0.3417	660.87895	41.300113	31.011798
0.3434	629.62271	41.016807	29.809945
0.3451	639.40807	40.577224	28.829116
0.3468	658.79542	40.876273	29.692902
0.3485	616.55153	40.40892	28.427457
0.3502	622.92084	40.366818	29.009682
0.3519	618.59796	40.172946	28.14894
0.3536	614.76973	40.081024	28.83522
0.3553	630.71431	40.125798	29.279733
0.357	638.61589	40.089867	28.991239
0.3587	599.28109	39.740378	28.201357
0.3604	575.89759	39.426677	27.729097
0.3621	609.81598	39.615171	28.923593
0.3638	609.89247	39.530148	28.244279
0.3655	571.65139	39.032437	26.74729
0.3672	601.63626	39.246242	27.953165
0.3689	580.94364	38.986833	27.410045
0.3706	603.12195	39.122336	28.068586
0.3723	585.27595	38.817021	27.56174
0.374	585.94056	38.653692	27.475894
0.3757	635.0458	38.974426	28.446096
0.3774	637.92952	38.933717	28.19822
0.3791	610.67928	38.653084	27.639952
0.3808	576.3181	38.110616	26.184199
0.3825	621.15041	38.46723	27.266903
0.3842	581.54603	38.045119	26.070374
0.3859	563.16028	37.923428	26.427987
0.3876	568.9683	37.853227	26.464315
0.3893	614.53653	38.202686	27.325883
0.391	582.36645	37.714551	26.14171
0.3927	629.08998	37.986784	27.796688
0.3944	663.06061	38.123127	28.901536
0.3961	592.98751	37.464711	26.244947
0.3978	582.08702	37.443991	26.317367
0.3995	613.539	37.386626	26.052825
0.4012	577.81404	37.090574	25.623782
0.4029	600.64652	37.33912	26.740759
0.4046	582.94018	37.128234	26.075144
0.4063	569.01201	36.821087	25.571798
0.408	606.30498	37.006156	26.252765
0.4097	588.48688	36.796357	25.576697
0.4114	574.83737	36.682138	25.178293
0.4131	598.98945	36.732316	25.418269
0.4148	608.42189	36.646719	26.150054
0.4165	594.39204	36.572906	26.086598
0.4182	583.53726	36.429404	25.210079
0.4199	584.99799	36.381913	25.467689
0.4216	613.52089	36.459998	26.42398
0.4233	607.60942	36.133304	25.505431
0.425	612.86684	36.34603	25.905234
0.4267	567.43792	35.920067	24.995048
0.4284	563.16081	35.881102	24.965252
0.4301	564.13741	35.731548	24.675638
0.4318	609.24379	36.026793	25.529934
0.4335	586.6238	35.683213	24.577261
0.4352	606.68255	35.697257	25.267202
0.4369	643.28054	35.866177	25.819725
0.4386	609.04486	35.687798	25.541222
0.4403	589.07877	35.535447	25.454527
0.442	594.26754	35.386752	24.79917
0.4437	591.19409	35.262255	24.579699
0.4454	555.42726	35.070522	24.23647
0.4471	589.22875	35.270973	25.179408
0.4488	604.08975	35.19855	25.455465
0.4505	574.19376	35.079778	25.084783
0.4522	574.12652	34.914286	24.228886
0.4539	563.10655	34.676514	23.570118
0.4556	565.06617	34.678486	24.098026
0.4573	582.54645	34.641732	23.737256
0.459	596.49509	34.819005	24.614752
0.4607	563.52393	34.520646	23.925095
0.4624	579.76116	34.473254	23.888664
0.4641	607.84256	34.58078	24.371222
0.4658	607.59102	34.643612	24.880606
0.4675	596.59098	34.505529	24.75399
0.4692	568.09044	34.1182	23.684872
0.4709	561.56997	34.066289	23.796837
0.4726	604.04039	34.312226	24.351425
0.4743	601.19653	34.172768	24.170138
0.476	622.87867	34.299019	24.961211
0.4777	629.14524	34.180343	24.33634
0.4794	567.50144	33.830231	23.962072
0.4811	561.854	33.799961	23.990924
0.4828	566.79531	33.77856	24.067374
0.4845	583.6594	33.767506	23.915841
0.4862	550.24108	33.622795	23.114593
0.4879	545.45548	33.445983	22.949584
0.4896	601.15873	33.615552	24.057157
0.4913	607.50934	33.617602	24.344922
0.493	566.32296	33.352314	23.461754
0.4947	562.98164	33.404663	23.352282
0.4964	588.94808	33.764443	23.563537
0.4981	577.61901	33.779375	23.211779
0.4998	580.12351	33.749669	22.895397
0.5015	592.09277	34.209606	24.439711
0.5032	563.8703	33.969354	23.540766
0.5049	590.0727	34.185754	24.204969
0.5066	595.14535	34.294441	24.426854
0.5083	565.81087	34.090783	23.536396
0.51	567.35205	34.192477	24.220483
0.5117	548.39824	33.998731	23.197842
0.5134	560.35665	34.199606	23.669717
0.5151	556.00045	34.137257	23.727967
0.5168	578.58581	34.28409	23.693208
0.5185	561.36438	34.139774	23.21135
0.5202	594.0692	34.382371	24.112123
0.5219	578.21349	34.246703	23.597734
0.5236	594.77881	34.094952	23.62018
0.5253	558.95807	33.661971	23.172939
0.527	552.34437	33.434774	22.901842
0.5287	570.98749	33.50001	23.45219
0.5304	572.49959	33.330481	23.086708
0.5321	612.09295	33.307878	23.533525
0.5338	597.00777	33.211385	23.652601
0.5355	582.03607	33.102901	23.386933
0.5372	571.56234	32.947722	23.267512
0.53889997	590.1131	32.91502	23.560007
0.5406	581.51088	32.736221	22.931251
0.54230003	570.45157	32.726803	22.932132
0.544	582.8707	32.586866	22.462924
0.54569997	573.89587	32.401661	22.448471
0.5474	570.28083	32.394926	22.832205
0.54910003	570.90828	32.441006	22.810933
0.5508	583.38882	32.297195	22.362019
0.55249997	571.09259	32.198836	22.082193
0.5542	555.55919	32.345817	22.00091
0.55590003	560.94683	32.50811	22.333843
0.5576	578.23921	32.678413	22.873054
0.55929997	570.94043	32.786156	23.149223
0.561	559.08528	32.811169	22.594977
0.56270003	540.09384	32.683179	22.10991
0.5644	574.6523	32.90387	23.050049
0.56609997	554.85377	32.846172	22.921627
0.5678	552.89356	32.847267	22.605149
0.56950003	576.47315	32.942319	22.770328
0.5712	574.82333	32.933424	22.787552
0.57289997	554.55894	32.820167	22.474534
0.5746	580.32203	32.977841	22.847102
0.57630003	590.43624	33.061208	23.541925
0.578	599.55857	33.108261	23.367592
0.57969997	575.27934	32.934795	22.866533
0.5814	564.34831	32.746328	22.199523
0.58310003	607.11355	32.816481	23.016695
0.5848	599.43337	32.652183	23.546852
0.58649997	556.81486	32.067621	22.004333
0.5882	554.95285	32.028781	22.307827
0.58990003	554.93445	31.932114	22.103861
0.5916	596.26107	32.023285	22.740865
0.59329997	576.64247	31.710719	22.054485
0.595	582.48175	31.667025	21.770827
0.59670003	589.07151	31.727749	22.357124
0.5984	558.63488	31.446673	21.555316
0.60009997	561.15967	31.284742	21.360844
0.6018	563.73572	31.199885	21.270889
0.60350003	563.2031	31.290949	21.632848
0.6052	567.31542	31.262316	22.210607
0.60689997	602.44218	31.371872	22.605044
0.6086	553.68744	30.927413	21.302252
0.61030003	560.19104	30.938464	21.37169
0.612	583.84518	30.990876	21.65311
0.61369997	589.38804	30.975604	21.801969
0.6154	588.8326	30.991311	22.149944
0.61710003	578.3788	30.739165	21.675856
0.6188	592.54389	30.749139	21.463881
0.62049997	556.37991	30.623178	21.292939
0.6222	559.78899	30.4938	20.921001
0.62390003	560.52909	30.536473	21.22181
0.6256	556.96578	30.360969	20.820468
0.62729997	583.49721	30.485978	21.567645
0.629	575.76218	30.328667	21.088782
0.63070003	591.0881	30.326094	20.948609
0.6324	611.28509	30.355007	21.327573
0.63409997	607.38543	30.25274	21.06047
0.6358	555.85419	29.990047	20.37061
0.63750003	564.51427	30.072734	20.737932
0.6392	560.65448	29.997161	20.820468
0.64089997	579.065	30.197016	21.633447
0.6426	542.04845	29.724157	20.080382
0.64430003	540.33176	29.659193	19.800165
0.646	541.48251	29.666364	19.822138
0.64769997	522.04786	29.553647	19.818118
0.6494	558.63871	29.603718	20.036284
0.65110003	569.76632	29.679422	20.548285
0.6528	578.09011	29.731445	20.868032
0.65449997	571.66083	29.55953	20.507097
0.6562	571.72204	29.481247	20.372601
0.65790003	572.94504	29.512254	20.711851
0.6596	595.24419	29.518653	20.608511
0.66129997	579.43814	29.380766	20.192699
0.663	579.12103	29.257108	20.02543
0.66470003	569.18534	29.189655	20.066156
0.6664	556.59193	29.186343	19.890704
0.66809997	520.74312	28.947569	19.423699
0.6698	538.50578	29.037857	19.818898
0.67150003	546.18236	29.016037	19.813988
0.6732	571.98426	29.101365	20.313185
0.67489997	565.9819	28.99384	20.211826
0.6766	546.64474	28.724292	19.403311
0.67830003	579.41325	28.974359	20.248326
0.68	578.42439	28.962426	20.355213
0.68169997	564.26385	28.832058	20.061412
0.6834	561.7735	28.774861	20.254885
0.68510003	575.05429	28.813128	20.312406
0.6868	554.16846	28.682002	19.917135
0.68849997	551.62178	28.541599	19.546864
0.6902	521.32469	28.376971	19.03349
0.69190003	543.27228	28.529161	19.718881
0.6936	586.22394	28.571478	19.897799
0.69529997	577.48649	28.457793	19.54865
0.697	564.2878	28.416193	19.513067
0.69870003	562.08968	28.425352	19.824915
0.7004	578.76097	28.484292	20.006027
0.70209997	552.68183	28.302679	19.781387
0.7038	547.45437	28.191438	19.325689
0.70550003	552.84531	28.11635	19.094107
0.7072	583.96749	28.382148	20.128688
0.70889997	563.64554	28.139251	19.639922
0.7106	548.85206	28.040572	19.270033
0.71230003	531.41749	27.849456	18.201243
0.714	530.05082	27.804127	18.480995
0.71569997	556.01378	28.068812	19.451856
0.7174	526.96227	27.752753	18.763206
0.71910003	554.44553	27.873334	19.124608
0.7208	552.96421	27.802942	18.975828
0.72249997	563.40816	27.838429	19.303805
0.7242	557.87101	27.780811	18.978028
0.72590003	527.93963	27.540214	18.528913
0.7276	550.05589	27.700735	19.247415
0.72929997	590.38699	27.88156	19.672578
0.731	550.05973	27.527268	18.763279
0.73270003	587.34049	27.695516	19.334719
0.7344	569.6565	27.619985	19.314415
0.73609997	537.14961	27.495732	18.847386
0.7378	553.40459	27.413135	18.932043
0.73950003	585.26026	27.59058	19.642043
0.7412	546.72017	27.321578	18.717412
0.74289997	565.84313	27.479888	19.300752
0.7446	566.30415	27.381354	19.337709
0.74630003	589.55825	27.417581	19.233162
0.748	547.92884	27.18942	18.295688
0.74969997	550.32135	27.240179	18.740935
0.7514	553.18372	27.169705	18.854343
0.75310003	580.67872	27.212526	19.007795
0.7548	571.00778	27.158937	18.763718
0.75649997	538.17103	27.070807	18.673819
0.7582	565.32549	27.120473	18.97742
0.75990003	586.49476	27.230473	19.562815
0.7616	588.59186	27.099116	19.138779
0.76329997	559.23974	26.96806	18.648067
0.765	537.65003	26.866302	18.259283
0.76670003	547.86568	26.832499	18.485964
0.7684	590.20758	27.099132	19.633912
0.77009997	573.20413	26.850477	18.554447
0.7718	535.11403	26.689233	17.983622
0.77350003	560.50645	26.763708	18.340396
0.7752	541.04514	26.639807	17.804777
0.77689997	516.30837	26.507679	17.505229
0.7786	536.62949	26.628524	18.176642
0.78030003	518.59141	26.522873	17.951526
0.782	543.03159	26.524616	18.021072
0.78369997	580.37528	26.727413	18.708604
0.7854	535.76572	26.418587	17.804538
0.78710003	550.77506	26.474669	18.227004
0.7888	568.8224	26.499293	18.364145
0.79049997	541.34421	26.408198	18.2017
0.7922	545.90441	26.361356	18.038063
0.79390003	561.2896	26.395472	18.325189
0.7956	564.09583	26.418984	18.427276
0.79729997	537.8246	26.221028	17.903294
0.799	577.12897	26.411462	18.507914
0.80070003	568.03689	26.319195	18.509009
0.8024	549.99444	26.287237	18.199565
0.80409997	525.21668	26.069423	17.467792
0.8058	568.56656	26.263029	18.326955
0.80750003	575.1874	26.165894	17.982618
0.8092	561.34852	26.109529	17.850517
0.81089997	519.0394	25.894895	17.296713
0.8126	533.32273	25.963217	17.676326
0.81430003	533.77196	25.903605	17.572475
0.816	562.82641	26.024564	17.830487
0.81769997	552.72028	26.07456	17.798035
0.8194	534.90313	26.128028	17.489668
0.82110003	550.77582	26.309645	17.870101
0.8228	557.76834	26.452628	18.314397
0.82449997	531.69987	26.298181	17.585415
0.8262	533.34202	26.377779	17.616374
0.82790003	536.51225	26.412692	17.72775
0.8296	536.95446	26.437449	17.939242
0.83129997	539.89262	26.535017	18.10335
0.833	524.47788	26.386053	17.546782
0.83470003	542.03141	26.374425	17.42299
0.8364	548.35819	26.428984	17.6482
0.83809997	544.78055	26.557114	18.2333
0.8398	551.70146	26.605516	18.42772
0.84150003	565.08587	26.646079	18.622349
0.8432	554.08689	26.736824	18.650888
0.84489997	559.27749	26.982935	18.777893
0.8466	568.49319	27.06645	18.802034
0.84830003	550.31993	27.073796	18.478746
0.85	544.20246	27.221968	18.666423
0.85169997	571.28473	27.400529	19.266974
0.8534	592.86779	27.620267	19.503396
0.85510003	564.68884	27.747071	19.164498
0.8568	534.00898	27.818954	18.954121
0.85849997	539.94994	27.994791	18.806555
0.8602	522.6286	28.036834	18.394183
0.86190003	527.71759	28.2555	18.97475
0.8636	549.78478	28.472978	19.353697
0.86529997	562.4338	28.675882	19.610301
0.867	565.92646	28.731298	19.733923
0.86870003	571.10002	28.948863	20.338138
0.8704	559.04347	28.950678	20.187849
0.87209997	552.32396	29.098509	20.339627
0.8738	525.38063	28.997749	19.414668
0.87550003	524.68571	29.070622	19.608515
0.8772	558.50696	29.37426	20.345641
0.87889997	577.9931	29.620016	21.047323
0.8806	597.55808	29.853187	21.402052
0.88230003	562.47249	29.611534	20.178411
0.884	568.53866	29.74178	20.459147
0.88569997	569.52723	29.951028	20.813042
