# HDF: fcm_201403_060  
# /archive/messung/kmc/daten/2014/1Q/pilatus_201403_0949.tif
# Energy (eV)=8800 Distance (mm)=4.5326  Normalization factor =0.00050420582  Center=(497.5,538.2)  Binsize (nm-1)=0.0017
# Normalized by solid angle (1/distance^2), time (PilatusAcqTime_GRAL) and intensity (K4norm_mean)
# Detector quantum efficiency = 95.72% Monitor sensitivity (ph/s/A) = 4.538e+16 Sample thickness (mm) =1 Direct beam(photons * sr) = 0.5268
# q(nm-1)	I_norm	err_pois	err_stdv
0	0	935.63135	0
0.0017	0	494.83877	0
0.0034	0	362.77644	0
0.0051	0	297.34114	7.8064933
0.0068	105.99153	267.99828	81.816347
0.0085	272.47538	262.2836	125.59677
0.0102	191.09498	249.64911	102.1448
0.0119	160.56528	238.51043	90.083921
0.0136	133.77068	225.72673	78.993419
0.0153	49.998748	213.82501	46.799805
0.017	56.229878	206.54125	48.174035
0.0187	134.50761	193.06453	67.707345
0.0204	74.946701	172.35944	46.393914
0.0221	202.74572	173.80947	114.01711
0.0238	845.83305	195.93345	547.03506
0.0255	11079.494	451.62774	1910.0155
0.0272	27638.362	677.90086	2460.1066
0.0289	42384.838	871.32509	1972.4697
0.0306	45526.309	881.56895	1465.004
0.0323	46731.174	849.14786	1374.5481
0.034	45409.766	755.66233	1195.2563
0.0357	42421.051	675.85444	1024.7864
0.0374	39873.31	628.73752	821.51832
0.0391	38921.232	606.79358	847.36417
0.0408	37121.252	579.26978	776.62337
0.0425	35141.075	543.68757	703.49255
0.0442	34108.311	524.69924	732.73679
0.0459	32291.846	500.63665	706.41453
0.0476	30978.83	483.02831	612.90382
0.0493	28932.624	456.30621	621.3735
0.051	27818.281	438.82589	601.88234
0.0527	25578.565	414.91128	555.91885
0.0544	23525.446	388.19802	541.82716
0.0561	22846.86	378.17783	551.67381
0.0578	21565.984	361.98466	495.22282
0.0595	20041.976	344.12865	463.14991
0.0612	18166.702	321.52558	437.93821
0.0629	16798.376	303.75454	432.14252
0.0646	15913.484	293.65698	421.6555
0.0663	14775.979	278.70882	399.06088
0.068	13460.422	261.21807	367.66539
0.0697	12829.578	251.95209	355.785
0.0714	11800.963	239.17054	322.86454
0.0731	10593.926	223.27151	306.48932
0.0748	9751.9053	212.27291	298.43247
0.0765	8262.1781	191.73619	245.8634
0.0782	7666.0506	184.72937	241.63912
0.0799	6783.6273	171.20813	240.11639
0.0816	6069.6003	161.6864	216.02272
0.0833	5469.2364	151.04289	192.5643
0.085	4803.0893	140.19672	176.33595
0.0867	4316.6245	134.95175	167.28196
0.0884	3757.8375	124.96941	150.68198
0.0901	3314.5089	117.10322	141.85225
0.0918	2760.565	108.0479	133.67352
0.0935	2545.1613	104.49782	121.26174
0.0952	2139.8145	96.565082	110.5475
0.0969	1969.8667	93.513815	102.62493
0.0986	1829.5971	91.071761	95.622045
0.1003	1632.2086	87.235939	85.962151
0.102	1406.1199	83.848018	80.911175
0.1037	1211.806	79.628809	72.125812
0.1054	1110.2799	77.909351	70.008805
0.1071	1128.1238	77.651827	68.039197
0.1088	1024.5546	75.716169	66.134164
0.1105	1119.6097	76.340647	67.035752
0.1122	1059.7854	74.286663	64.708965
0.1139	1024.0852	74.24975	65.195375
0.1156	994.26009	72.717722	60.814142
0.1173	1074.2924	73.474548	63.547126
0.119	1004.1138	71.770902	62.522506
0.1207	1072.219	73.747795	68.116147
0.1224	1186.4782	73.043374	63.692826
0.1241	1298.7559	73.610045	68.160655
0.1258	1255.5401	73.161227	68.1792
0.1275	1246.5746	72.260201	66.156152
0.1292	1212.5722	71.224793	65.313863
0.1309	1337.9699	73.303203	70.510989
0.1326	1384.179	72.420241	68.598006
0.1343	1380.6086	71.234509	66.303728
0.136	1427.2622	72.836779	70.828818
0.1377	1395.2444	73.464367	72.502888
0.1394	1427.021	73.054834	68.014963
0.1411	1434.4522	73.192554	68.157899
0.1428	1433.4594	73.949529	68.934461
0.1445	1264.898	71.590107	65.882514
0.1462	1247.8953	71.758149	64.978561
0.1479	1252.5142	71.837656	66.260713
0.1496	1200.031	71.135622	66.40639
0.1513	1196.1973	71.284447	65.857748
0.153	1139.5742	70.033741	62.649469
0.1547	1156.3702	70.719668	64.607012
0.1564	1019.2666	68.965684	61.690746
0.1581	1005.1687	68.348425	58.387725
0.1598	970.37979	67.756914	57.876191
0.1615	826.69317	65.708006	52.87706
0.1632	889.16597	67.26964	56.397319
0.1649	868.67879	65.598318	52.609188
0.1666	761.34829	63.613519	50.018712
0.1683	652.41863	61.90357	46.512731
0.17	727.82839	61.855874	47.392379
0.1717	765.76143	61.524203	48.760462
0.1734	737.45658	60.191249	44.506133
0.1751	646.17227	59.210098	42.557142
0.1768	684.24456	59.575501	45.910507
0.1785	668.84246	58.676321	44.013306
0.1802	634.02504	57.602697	40.273913
0.1819	655.23037	57.878611	43.00047
0.1836	712.01656	58.174647	44.702665
0.1853	712.27196	57.401717	42.120818
0.187	690.53903	56.832826	41.751393
0.1887	707.17613	57.171331	44.179579
0.1904	665.61714	56.108017	41.330485
0.1921	705.42613	56.061322	41.695004
0.1938	728.86431	56.32107	43.589358
0.1955	716.75762	56.574105	42.710127
0.1972	693.66936	57.090841	43.156126
0.1989	643.52443	56.472197	40.955415
0.2006	766.63048	57.587632	44.439249
0.2023	743.30715	57.278349	44.587767
0.204	722.46439	57.505934	43.810501
0.2057	761.82588	57.683094	44.467565
0.2074	759.33113	57.442494	44.025172
0.2091	800.01065	58.315019	46.512786
0.2108	710.32573	57.49586	44.46553
0.2125	704.11271	57.267299	44.344393
0.2142	720.80908	57.177626	43.997587
0.2159	626.81972	55.986862	39.675587
0.2176	660.39748	56.553359	41.790958
0.2193	734.93571	57.004729	42.116943
0.221	685.96288	56.038614	40.766729
0.2227	637.59058	55.857505	41.595571
0.2244	611.02745	54.48885	38.466744
0.2261	642.89027	54.12385	38.506745
0.2278	686.90079	54.032943	39.33982
0.2295	664.81311	53.164732	37.906239
0.2312	593.27009	52.456883	37.05702
0.2329	629.5535	52.609949	38.841854
0.2346	608.84284	51.809605	37.218523
0.2363	636.09498	51.759814	37.084091
0.238	617.30714	51.345785	36.324327
0.2397	587.46905	50.803659	34.985374
0.2414	551.73723	50.211214	34.217645
0.2431	583.09208	50.164626	34.710834
0.2448	618.49568	50.192761	35.749895
0.2465	648.36173	50.431053	36.640046
0.2482	567.25684	49.316257	34.259608
0.2499	554.59857	48.933248	33.379269
0.2516	552.40751	48.887835	32.590532
0.2533	592.99536	48.705067	33.083791
0.255	607.84451	49.114878	35.763893
0.2567	595.05266	48.39121	33.837884
0.2584	590.38541	48.07619	33.224699
0.2601	591.83993	48.235961	34.012206
0.2618	566.19167	47.658359	33.069158
0.2635	601.49773	47.830994	33.98392
0.2652	606.32356	47.412642	33.437674
0.2669	646.72741	48.033573	35.628337
0.2686	551.32514	46.816832	32.179055
0.2703	539.25882	46.296198	30.704751
0.272	625.1043	47.048843	33.683909
0.2737	590.48613	46.573168	33.117042
0.2754	588.94349	46.467606	33.142817
0.2771	600.9222	46.174297	32.680922
0.2788	578.13131	45.87791	32.185413
0.2805	567.70062	45.689457	31.642437
0.2822	584.31886	45.848485	32.390534
0.2839	536.30363	45.020116	30.414046
0.2856	542.41156	44.922715	30.352467
0.2873	558.92446	45.073354	31.03479
0.289	553.85689	44.485885	29.704158
0.2907	600.81516	45.024402	31.647003
0.2924	509.53906	44.231978	30.504729
0.2941	564.39409	44.64955	32.040419
0.2958	606.1619	44.515438	31.633741
0.2975	546.83977	43.770127	29.519982
0.2992	527.31132	43.783599	29.841882
0.3009	498.55844	43.480988	29.52419
0.3026	519.62882	43.545053	29.839213
0.3043	558.7501	43.531868	30.274171
0.306	510.83901	42.802172	28.11159
0.3077	561.62166	43.226102	29.644998
0.3094	589.28879	43.377635	31.087588
0.3111	556.49905	42.76544	29.605714
0.3128	562.18554	42.730161	29.38436
0.3145	541.30252	42.584952	29.153548
0.3162	555.90029	42.597461	29.75287
0.3179	560.31863	42.394936	29.59044
0.3196	571.69942	42.216133	29.129029
0.3213	552.57644	42.197015	29.162083
0.323	509.02642	41.66643	27.619798
0.3247	554.68356	41.861687	28.575536
0.3264	563.9064	41.772494	28.607236
0.3281	562.70385	41.69325	28.457367
0.3298	528.33713	41.228972	27.770455
0.3315	552.62804	41.29751	28.382297
0.3332	569.55547	41.051708	27.635546
0.3349	568.57181	41.215425	28.713275
0.3366	551.92998	41.09192	28.705557
0.3383	540.07581	40.760689	27.80886
0.34	531.55529	40.525767	27.122534
0.3417	546.48246	40.62165	27.592839
0.3434	500.94035	40.160098	26.117711
0.3451	545.66932	40.292096	26.999269
0.3468	535.03701	39.962605	26.35469
0.3485	536.47746	40.090824	27.03966
0.3502	524.81166	39.787574	26.603028
0.3519	552.80294	40.036106	27.429311
0.3536	495.91521	39.325845	25.962153
0.3553	569.78422	39.786369	27.129836
0.357	538.1891	39.553497	26.668157
0.3587	500.45714	39.340732	26.138997
0.3604	483.83548	38.860913	24.902551
0.3621	512.55969	39.060326	25.816531
0.3638	526.98776	39.057246	26.120484
0.3655	531.3282	38.933807	26.419536
0.3672	527.20717	38.979552	26.725848
0.3689	509.32267	38.652404	25.653962
0.3706	547.2453	38.878434	26.93238
0.3723	524.12838	38.564699	25.950733
0.374	516.08805	38.294763	25.294104
0.3757	529.2235	38.490483	26.354518
0.3774	509.26876	38.200775	25.471968
0.3791	528.66038	38.289236	25.737024
0.3808	535.71084	38.074743	25.70233
0.3825	542.24079	38.180996	26.366772
0.3842	499.61362	37.794444	25.316111
0.3859	533.97119	37.779671	25.768669
0.3876	527.91711	37.770702	25.665414
0.3893	505.29722	37.431654	24.336318
0.391	536.75042	37.584713	25.018885
0.3927	541.97948	37.518383	25.408442
0.3944	549.05275	37.436006	25.871688
0.3961	536.50294	37.436519	25.684376
0.3978	523.25507	37.070589	24.429508
0.3995	550.11485	37.11936	24.684642
0.4012	523.62845	36.982249	24.572825
0.4029	548.61051	37.111975	25.40567
0.4046	514.76233	36.855397	24.822035
0.4063	501.98164	36.517838	23.706879
0.408	518.96664	36.646249	24.399899
0.4097	514.2001	36.42853	23.639576
0.4114	515.01543	36.41601	24.236338
0.4131	542.66489	36.518554	24.396282
0.4148	499.81169	36.069611	23.789964
0.4165	518.95748	36.241625	24.255354
0.4182	494.68403	36.048532	23.373424
0.4199	529.44374	36.104196	24.029753
0.4216	529.21765	35.946121	23.753452
0.4233	517.59015	35.99992	24.388657
0.425	482.95962	35.740131	23.590522
0.4267	508.32671	35.638518	23.184182
0.4284	509.48403	35.49816	23.028931
0.4301	510.45174	35.522646	23.372562
0.4318	524.41121	35.592078	23.811471
0.4335	519.13002	35.454358	23.126425
0.4352	511.33144	35.223728	23.115091
0.4369	524.31628	35.355966	23.749272
0.4386	487.67989	35.135292	23.098532
0.4403	537.2416	35.324905	24.012137
0.442	521.59486	35.085901	23.649619
0.4437	511.60422	35.023376	23.33643
0.4454	527.53817	35.100799	23.654984
0.4471	546.0047	35.07672	24.002267
0.4488	536.17064	34.902365	23.936746
0.4505	535.36063	34.880458	24.00841
0.4522	522.88494	34.76324	23.541036
0.4539	500.45573	34.556279	22.834436
0.4556	501.51014	34.485794	22.843042
0.4573	515.06679	34.475151	23.238465
0.459	507.39009	34.398677	22.869105
0.4607	508.37719	34.3419	22.972969
0.4624	520.62337	34.246789	23.151847
0.4641	526.06172	34.230664	22.829115
0.4658	496.25206	34.168424	22.621311
0.4675	481.34173	33.867149	21.752729
0.4692	505.83509	33.962988	22.523721
0.4709	479.85964	33.732214	21.942337
0.4726	512.50005	33.960812	23.081099
0.4743	524.05928	33.877434	22.935109
0.476	513.87962	33.662981	22.135322
0.4777	528.45173	33.699432	22.358948
0.4794	506.91989	33.560056	22.176664
0.4811	517.16239	33.651267	22.892243
0.4828	528.62066	33.561981	22.905696
0.4845	550.55083	33.617431	22.811768
0.4862	550.57323	33.612234	22.935807
0.4879	529.47353	33.420378	22.401893
0.4896	530.33785	33.215696	21.604896
0.4913	526.14176	33.125691	21.616004
0.493	502.65848	33.014831	21.567337
0.4947	535.52471	33.339822	22.53557
0.4964	525.71991	33.530237	22.607508
0.4981	501.44193	33.467708	21.698683
0.4998	518.41954	33.794876	22.798654
0.5015	509.14689	33.741568	22.407981
0.5032	489.40615	33.715793	22.041608
0.5049	449.29861	33.407415	20.6486
0.5066	511.65015	33.866351	22.424642
0.5083	561.97731	34.088052	23.273409
0.51	518.68742	33.857356	22.302635
0.5117	500.67685	33.843946	22.090901
0.5134	534.93825	34.101455	22.71967
0.5151	522.14012	34.024054	22.578505
0.5168	511.77202	34.028708	22.582993
0.5185	531.84326	34.107159	23.196436
0.5202	554.13658	34.214151	23.331343
0.5219	564.39244	34.179791	22.996392
0.5236	500.42978	33.724807	22.14567
0.5253	488.7664	33.451613	21.843468
0.527	519.26514	33.362231	22.343407
0.5287	508.72787	33.291646	22.128248
0.5304	475.75623	32.865529	20.94147
0.5321	491.55822	32.760813	21.150119
0.5338	506.12525	32.930226	22.190823
0.5355	509.7726	32.750229	21.470199
0.5372	486.95023	32.507648	20.767722
0.53889997	481.20206	32.41926	20.778832
0.5406	504.51156	32.439109	21.075888
0.54230003	526.03749	32.416541	21.390611
0.544	540.60825	32.44652	21.792845
0.54569997	515.88324	32.302808	21.700921
0.5474	516.4492	32.227302	21.541632
0.54910003	498.07831	32.118459	21.270189
0.5508	501.86301	32.008519	20.907145
0.55249997	504.16945	31.920072	20.913342
0.5542	523.62271	32.322675	21.599417
0.55590003	523.33545	32.401524	21.206159
0.5576	494.28919	32.284739	20.866149
0.55929997	515.87615	32.545266	21.627096
0.561	501.46534	32.543467	21.521872
0.56270003	502.88031	32.616014	21.407638
0.5644	485.5282	32.503692	21.063854
0.56609997	462.33151	32.34173	20.373087
0.5678	495.01048	32.577099	21.515719
0.56950003	509.81261	32.783658	22.001054
0.5712	476.23642	32.544598	20.865785
0.57289997	517.9202	32.759649	22.153282
0.5746	528.75856	32.838661	22.034358
0.57630003	499.59991	32.669119	21.482381
0.578	518.02341	32.691048	21.7185
0.57969997	500.0694	32.607784	21.528426
0.5814	523.94704	32.744026	22.112889
0.58310003	514.03566	32.523131	22.021498
0.5848	509.46743	32.2308	21.593494
0.58649997	501.29759	31.793464	20.473241
0.5882	514.79519	31.804321	20.848623
0.58990003	522.30344	31.772399	20.626056
0.5916	524.59095	31.677074	20.978154
0.59329997	523.57868	31.653294	21.452413
0.595	481.13533	31.315248	20.338081
0.59670003	507.9087	31.400713	20.828959
0.5984	484.81509	31.273241	20.881507
0.60009997	470.91595	31.056531	20.191727
0.6018	478.65039	30.910459	19.561123
0.60350003	490.62344	30.910053	19.750488
0.6052	504.94056	30.923772	20.090951
0.60689997	497.01567	30.813874	19.832175
0.6086	477.42362	30.66146	19.759369
0.61030003	486.45273	30.663204	19.808452
0.612	527.71809	30.774433	20.292498
0.61369997	500.90618	30.660812	20.385781
0.6154	496.65056	30.551908	19.978155
0.61710003	508.65789	30.475135	19.971181
0.6188	523.16776	30.507755	20.205584
0.62049997	505.18899	30.367362	20.258657
0.6222	492.73461	30.289381	19.92484
0.62390003	496.70985	30.235901	19.490648
0.6256	484.54158	30.075495	19.145874
0.62729997	478.84651	30.047291	19.497106
0.629	516.81685	30.15444	20.179944
0.63070003	481.54616	29.856849	19.099658
0.6324	497.66863	30.049982	20.11365
0.63409997	482.41578	29.816887	19.415646
0.6358	475.74582	29.706803	19.18775
0.63750003	496.54476	29.819096	19.850801
0.6392	519.64839	29.948059	20.161584
0.64089997	504.04792	29.781926	19.775564
0.6426	478.39969	29.529128	19.105897
0.64430003	473.314	29.430551	18.85032
0.646	527.59834	29.679733	19.84313
0.64769997	484.29108	29.487961	19.338042
0.6494	482.65927	29.398376	19.137041
0.65110003	533.83252	29.583798	19.854994
0.6528	527.96179	29.535792	19.865347
0.65449997	502.84751	29.342224	19.304692
0.6562	480.62565	29.151235	18.831303
0.65790003	486.30886	29.197995	19.048293
0.6596	514.22227	29.281229	19.579136
0.66129997	494.53694	29.108787	19.402107
0.663	494.51017	29.038744	18.944619
0.66470003	475.89944	28.886081	18.542456
0.6664	496.71304	28.985208	18.821733
0.66809997	489.44696	28.865587	18.604609
0.6698	491.15201	28.885955	18.830569
0.67150003	486.81766	28.806012	18.757653
0.6732	486.6158	28.750677	18.63299
0.67489997	496.34563	28.781727	19.106627
0.6766	488.95318	28.635109	18.846268
0.67830003	501.03498	28.708031	18.919088
0.68	484.77159	28.615616	18.596489
0.68169997	495.71117	28.573124	18.629863
0.6834	551.52675	28.825474	19.770605
0.68510003	520.28911	28.536041	19.04089
0.6868	500.20653	28.49386	18.7827
0.68849997	477.63324	28.341239	18.407341
0.6902	504.14279	28.326407	18.508995
0.69190003	483.09501	28.259211	18.377518
0.6936	470.5053	28.134136	17.874153
0.69529997	504.7591	28.22552	18.373992
0.697	521.02642	28.269612	18.911384
0.69870003	496.32435	28.187168	18.577316
0.7004	467.09376	28.04237	17.881272
0.70209997	485.15369	28.039734	18.103989
0.7038	501.13978	28.038502	18.400636
0.70550003	480.76275	27.892872	18.003146
0.7072	506.01703	27.993992	18.190883
0.70889997	500.15156	27.871721	18.15923
0.7106	509.71325	27.92444	18.42538
0.71230003	469.69795	27.73201	17.89957
0.714	474.27733	27.735863	17.879636
0.71569997	457.81537	27.59438	17.301768
0.7174	494.44066	27.659285	17.794438
0.71910003	483.98602	27.624399	18.273747
0.7208	496.34711	27.687077	18.372481
0.72249997	488.2276	27.563241	18.03434
0.7242	500.80322	27.589873	17.900081
0.72590003	500.01289	27.535873	18.05113
0.7276	486.38038	27.49974	18.214884
0.72929997	518.85056	27.625629	18.732026
0.731	513.55802	27.523983	18.585358
0.73270003	476.28081	27.280865	17.568185
0.7344	488.1393	27.274985	17.372156
0.73609997	503.00751	27.350937	17.800195
0.7378	502.6135	27.273489	17.855197
0.73950003	522.43909	27.331001	18.287263
0.7412	515.98065	27.30231	18.100601
0.74289997	488.73708	27.10451	17.248196
0.7446	487.58587	27.026887	17.26388
0.74630003	506.21297	27.159881	18.005852
0.748	467.78396	26.967495	17.126256
0.74969997	469.76589	26.941682	17.358949
0.7514	478.08802	26.929831	17.621153
0.75310003	490.09437	26.94871	17.716167
0.7548	505.4324	27.021372	18.127128
0.75649997	482.4946	26.912815	17.618591
0.7582	480.64217	26.707567	16.880734
0.75990003	471.98969	26.739601	17.256708
0.7616	489.50368	26.788621	17.663025
0.76329997	488.47503	26.773156	17.580258
0.765	465.29991	26.623259	17.063027
0.76670003	479.70691	26.62629	17.060796
0.7684	469.86177	26.575569	16.929335
0.77009997	497.80505	26.633525	17.325806
0.7718	502.43352	26.625817	17.439882
0.77350003	480.47888	26.519252	17.382293
0.7752	501.34647	26.605368	17.653755
0.77689997	485.97464	26.493793	17.202717
0.7786	472.25996	26.366208	16.915698
0.78030003	487.19367	26.42799	17.277233
0.782	507.75207	26.494423	17.733034
0.78369997	509.92574	26.458508	17.734952
0.7854	500.40282	26.453807	17.819627
0.78710003	486.24354	26.261462	17.038195
0.7888	474.90638	26.173703	16.76751
0.79049997	498.69882	26.324157	17.433321
0.7922	502.90082	26.261235	17.450135
0.79390003	494.37126	26.159066	16.98092
0.7956	487.04082	26.117017	17.04004
0.79729997	496.05234	26.147766	17.2857
0.799	475.61141	26.013403	16.684601
0.80070003	471.58841	25.977172	16.651421
0.8024	485.01677	25.975488	16.822848
0.80409997	495.7208	26.004151	17.002679
0.8058	463.37265	25.89398	16.794148
0.80750003	467.48313	25.871905	16.602107
0.8092	456.32329	25.735502	16.184613
0.81089997	488.36668	25.901731	16.784967
0.8126	503.91239	25.909224	17.109922
0.81430003	505.36312	25.852402	17.113784
0.816	497.45106	25.776521	16.747528
0.81769997	495.33566	25.899304	16.748422
0.8194	483.81819	26.07945	17.065791
0.82110003	508.09022	26.254194	17.39532
0.8228	490.99262	26.170029	17.142501
0.82449997	488.73481	26.26122	17.167141
0.8262	485.60489	26.288286	17.154101
0.82790003	484.29324	26.278291	17.048978
0.8296	465.22943	26.188742	16.703277
0.83129997	473.67378	26.309029	16.900781
0.833	496.98937	26.400404	17.388349
0.83470003	508.7868	26.315337	17.0968
0.8364	522.69029	26.436389	17.418681
0.83809997	492.73629	26.412229	17.406791
0.8398	476.28007	26.449424	17.503029
0.84150003	484.9352	26.331837	17.084321
0.8432	476.07603	26.437174	16.960245
0.84489997	488.57105	26.791307	17.538512
0.8466	466.70091	26.696373	16.981614
0.84830003	481.58774	26.886321	17.183272
0.85	487.17171	27.035002	17.651034
0.85169997	465.0511	27.016911	17.33997
0.8534	486.19194	27.284503	17.662951
0.85510003	484.07519	27.434465	17.690612
0.8568	482.3079	27.637116	17.995604
0.85849997	482.3293	27.864863	17.925278
0.8602	448.84726	27.789165	17.233353
0.86190003	479.5032	28.167657	18.462629
0.8636	477.31513	28.251742	18.322014
0.86529997	491.82698	28.45915	18.577135
0.867	488.41063	28.497787	18.515098
0.86870003	464.65546	28.498709	17.936338
0.8704	460.12101	28.529693	17.78591
0.87209997	463.224	28.748614	18.319925
0.8738	453.25739	28.789339	18.152492
0.87550003	473.29369	28.987439	19.015034
0.8772	519.95841	29.337754	19.824374
0.87889997	507.04656	29.310502	19.334959
0.8806	500.7405	29.380962	19.317722
0.88230003	480.70925	29.382912	19.082443
0.884	456.37634	29.357123	18.707303
0.88569997	470.60584	29.629926	19.039433
0.8874	478.33571	29.668385	19.113337
0.88910003	481.08559	29.810215	19.282021
